#Wave		#Intensity
3200.600830	8.419704
3200.007080	0.000000
3199.413086	0.000000
3198.819092	16.834320
3198.224854	4.207944
3197.630615	16.829231
3197.036377	25.240030
3196.442139	-21.030178
3195.847656	21.027000
3195.252930	0.000000
3194.658447	8.408257
3194.063721	8.406985
3193.468750	12.608572
3192.873779	16.808887
3192.278809	0.000000
3191.683838	12.602853
3191.088623	29.402208
3190.493164	25.198082
3189.897949	4.199045
3189.302490	12.595230
3188.706787	16.791100
3188.111328	25.182840
3187.515381	20.982525
3186.919678	12.587610
3186.323730	41.952354
3185.727783	16.778402
3185.131592	12.581898
3184.535400	12.579994
3183.939209	16.770788
3183.342773	-4.192062
3182.746338	4.191428
3182.149902	16.763174
3181.553223	-4.190159
3180.956543	0.000000
3180.359619	25.133347
3179.762695	8.376514
3179.165771	25.125738
3178.568604	12.560967
3177.971436	0.000000
3177.374268	16.742886
3176.776855	4.185088
3176.179443	25.106726
3175.581787	-8.367641
3174.984131	16.732748
3174.386475	8.365108
3173.788574	20.909601
3173.190674	20.906435
3172.592773	12.541961
3171.994629	12.540061
3171.396484	-12.538162
3170.798340	4.178754
3170.199951	12.534364
3169.601563	12.532465
3169.002930	8.353711
3168.404297	-16.704891
3167.805664	0.000000
3167.206787	12.524872
3166.607910	0.000000
3166.008789	29.215845
3165.409912	4.173059
3164.810547	4.172427
3164.211426	-12.515385
3163.612061	25.026976
3163.012695	8.341061
3162.413086	20.849491
3161.813477	4.169266
3161.213623	4.168634
3160.614014	-4.168002
3160.013916	16.669481
3159.414063	0.000000
3158.813965	4.166107
3158.213867	4.165475
3157.613525	16.659374
3157.013184	4.164212
3156.412598	4.163580
3155.812256	20.814745
3155.211426	8.324636
3154.610840	16.646746
3154.010010	12.483166
3153.409180	4.160424
3152.808105	12.479379
3152.207031	8.318324
3151.605957	4.158531
3151.004639	4.157900
3150.403320	0.000000
3149.801758	0.000000
3149.200195	8.312016
3148.598633	12.466131
3147.996826	16.618986
3147.395020	-8.308232
3146.793213	37.381371
3146.191162	-4.152855
3145.589111	29.065575
3144.986816	12.454784
3144.384766	8.301929
3143.782227	0.000000
3143.179932	12.449114
3142.577393	16.596298
3141.974609	8.296889
3141.371826	12.443444
3140.769043	12.441555
3140.166260	12.439666
3139.563232	4.145926
3138.960205	4.145296
3138.356934	4.144667
3137.753662	12.432112
3137.150391	0.000000
3136.546875	8.285557
3135.943359	8.284299
3135.339600	-12.424561
3134.735840	12.422673
3134.132080	28.981833
3133.528076	12.418899
3132.924072	12.417012
3132.320068	0.000000
3131.715820	-8.275493
3131.111572	12.411353
3130.507080	0.000000
3129.902588	20.679302
3129.298096	28.946623
3128.693604	4.134604
3128.088867	12.401925
3127.483887	16.533386
3126.878906	12.398155
3126.273926	8.264180
3125.668945	33.051697
3125.063721	4.130834
3124.458252	16.520824
3123.853027	8.259156
3123.247559	20.644751
3122.641846	20.641613
3122.036133	37.149254
3121.430420	0.000000
3120.824707	53.643711
3120.218750	20.629059
3119.612549	4.125185
3119.006592	20.622786
3118.400391	8.247859
3117.793945	-4.123302
3117.187500	12.368026
3116.581055	12.366144
3115.974609	12.364263
3115.367920	8.241588
3114.760986	0.000000
3114.154297	8.239080
3113.547363	16.475653
3112.940186	0.000000
3112.333008	4.117660
3111.725830	4.117033
3111.118408	20.582033
3110.510986	24.694681
3109.903564	16.460615
3109.295898	16.458109
3108.688232	20.569506
3108.080566	16.453100
3107.472656	24.675892
3106.864746	8.224045
3106.256592	8.222793
3105.648438	-16.443083
3105.040039	4.110145
3104.431885	8.219038
3103.823486	-8.217786
3103.214844	20.541336
3102.606201	24.645849
3101.997559	24.642096
3101.388672	0.000000
3100.779785	16.423061
3100.170898	8.210279
3099.561768	0.000000
3098.952637	0.000000
3098.343262	12.309792
3097.733887	12.307917
3097.124512	-12.306042
3096.514893	4.101389
3095.905273	20.503819
3095.295410	24.600834
3094.685791	8.199028
3094.075684	0.000000
3093.465820	12.294794
3092.855713	8.195280
3092.245361	24.582094
3091.635254	12.289173
3091.024658	8.191534
3090.414307	20.475712
3089.803711	16.378073
3089.193115	8.187788
3088.582275	0.000000
3087.971436	8.185291
3087.360596	12.276065
3086.749512	-8.182796
3086.138428	20.453869
3085.527100	20.450750
3084.915771	4.089526
3084.304443	4.088902
3083.692871	8.176558
3083.081299	24.525932
3082.469482	16.348127
3081.857910	24.518452
3081.245850	16.343140
3080.634033	8.170323
3080.021973	8.169077
3079.409668	28.587408
3078.797607	32.666340
3078.185059	0.000000
3077.572754	20.410231
3076.960205	20.407116
3076.347656	8.161601
3075.734863	12.240533
3075.122070	8.159110
3074.509033	12.236797
3073.895996	8.156620
3073.282959	4.077687
3072.669922	24.462389
3072.056641	16.305769
3071.443115	24.454920
3070.829834	24.451187
3070.216064	20.372879
3069.602539	4.073954
3068.988770	16.293325
3068.375000	16.290838
3067.760986	8.144175
3067.146973	0.000000
3066.532715	8.141687
3065.918701	12.210666
3065.304199	12.208801
3064.689941	12.206936
3064.075439	12.205071
3063.460693	16.270943
3062.846191	12.201343
3062.231445	32.531944
3061.616455	24.395229
3061.001465	8.130501
3060.386475	-8.129258
3059.771240	32.512066
3059.156006	36.570484
3058.540771	16.251064
3057.925293	8.124290
3057.309814	12.184573
3056.694092	32.487228
3056.078369	20.301414
3055.462646	0.000000
3054.846680	0.000000
3054.230713	24.350527
3053.614502	16.231203
3052.998291	28.400263
3052.382080	12.169680
3051.765625	28.391579
3051.149170	-4.055320
3050.532715	24.328197
3049.916016	8.108159
3049.299316	4.053459
3048.682373	-4.052839
3048.065430	28.365538
3047.448486	8.103200
3046.831299	-8.101960
3046.214111	4.050360
3045.596680	24.298445
3044.979248	8.098243
3044.361816	-12.145505
3043.744141	16.191528
3043.126465	24.283577
3042.508545	16.186575
3041.890869	16.184097
3041.272705	4.045405
3040.654785	28.313503
3040.036621	12.132502
3039.418213	24.261290
3038.799805	12.128788
3038.181396	-4.042310
3037.562988	-16.166767
3036.944336	36.369656
3036.325439	12.121363
3035.706543	0.000000
3035.087646	20.196087
3034.468750	32.308792
3033.849609	24.227882
3033.230469	12.112086
3032.611084	28.257206
3031.991699	28.252880
3031.372070	16.142031
3030.752441	12.104669
3030.132813	40.342716
3029.513184	24.201921
3028.893066	16.132143
3028.273193	12.097254
3027.653076	4.031800
3027.032959	24.187094
3026.412598	24.183390
3025.792480	4.029947
3025.171875	12.087989
3024.551270	24.172274
3023.930664	16.112379
3023.310059	12.082433
3022.689209	4.026860
3022.068115	12.078730
3021.447266	12.076879
3020.826172	12.075027
3020.204834	40.243923
3019.583496	16.095100
3018.962158	44.254742
3018.340576	32.180332
3017.718994	0.000000
3017.097412	8.042617
3016.475586	20.103458
3015.853760	8.040151
3015.231689	20.097294
3014.609619	16.075369
3013.987549	20.091129
3013.365234	16.070438
3012.742920	36.152943
3012.120361	16.065510
3011.497803	12.047284
3010.875244	16.060581
3010.252441	12.043589
3009.629639	44.153049
3009.006836	12.039893
3008.383789	24.076092
3007.760498	28.084463
3007.137451	16.045803
3006.514160	8.021670
3005.890625	20.051098
3005.267090	28.067228
3004.643555	20.044945
3004.019775	44.092110
3003.395996	48.093098
3002.772217	40.071430
3002.148193	44.071808
3001.524170	16.023651
3000.899902	44.058277
3000.275635	40.046829
2999.651367	12.012204
2999.026855	48.041439
2998.402344	20.014193
2997.777588	20.011120
2997.152832	20.008047
2996.528076	20.004974
2995.903076	32.003044
2995.278076	11.999298
2994.653076	7.998303
2994.027832	23.991224
2993.402344	39.979233
2992.777100	27.981163
2992.151367	31.973558
2991.525879	39.960808
2990.900146	27.968267
2990.274414	59.922794
2989.648438	55.919350
2989.022461	63.898006
2988.396240	31.944094
2987.770264	47.908775
2987.143799	39.917847
2986.517578	51.885223
2985.891113	51.877247
2985.264404	39.899441
2984.637695	59.839962
2984.010986	71.796913
2983.384033	47.857254
2982.757080	47.849895
2982.130127	71.763809
2981.502930	51.821445
2980.875732	87.684349
2980.248291	67.745667
2979.620850	43.828693
2978.993408	63.741020
2978.365723	39.832012
2977.738037	55.756241
2977.110107	91.585449
2976.482178	55.739090
2975.854248	55.730515
2975.226074	83.582909
2974.597900	119.385788
2973.969482	127.325249
2973.341309	99.457550
2972.712646	91.486870
2972.083984	107.381104
2971.455322	135.199844
2970.826660	99.396347
2970.197754	123.232506
2969.568604	158.985214
2968.939697	166.908783
2968.310547	166.883087
2967.681152	154.939011
2967.051758	194.637009
2966.422363	178.720749
2965.792725	194.577087
2965.163086	166.754684
2964.533203	198.486908
2963.903564	222.271118
2963.273438	234.142441
2962.643311	226.170578
2962.013184	265.808685
2961.383057	226.100922
2960.752686	226.066101
2960.122314	337.064178
2959.491699	273.574677
2958.861084	305.246460
2958.230225	332.944824
2957.599609	309.115417
2956.968506	316.992615
2956.337646	301.096588
2955.706299	281.244263
2955.075195	328.727875
2954.443848	320.757263
2953.812500	308.829773
2953.180908	296.905945
2952.549316	360.190369
2951.917725	352.219818
2951.285889	364.036285
2950.653809	324.417114
2950.021973	403.481018
2949.389893	395.508667
2948.757568	359.857391
2948.125244	363.755798
2947.492920	383.466003
2946.860352	351.785675
2946.227783	343.827362
2945.595215	312.162903
2944.962402	268.655762
2944.329590	268.614319
2943.696533	233.026489
2943.063477	244.837540
2942.430420	217.161087
2941.797119	177.649841
2941.163574	236.829926
2940.530273	264.419281
2939.896729	220.973083
2939.262939	213.048309
2938.629150	197.236511
2937.995361	197.206085
2937.361328	161.684036
2936.727295	205.031052
2936.093262	220.768585
2935.458984	236.501282
2934.824707	204.936142
2934.190186	236.428284
2933.555664	236.391800
2932.921143	259.990845
2932.286377	311.153107
2931.651367	263.848633
2931.016602	283.495056
2930.381592	346.440460
2929.746338	299.152374
2929.111084	358.140320
2928.475830	322.670013
2927.840332	377.701691
2927.204834	322.570374
2926.569336	436.582703
2925.933594	408.987274
2925.297607	432.515900
2924.661865	420.655029
2924.025879	393.074829
2923.389648	518.778625
2922.753418	424.389679
2922.117188	451.826599
2921.480713	522.466553
2920.844238	502.747253
2920.207764	490.888275
2919.571045	467.253418
2918.934082	526.069641
2918.297363	416.080322
2917.660156	521.982361
2917.023193	514.053528
2916.385986	466.892517
2915.748779	439.360321
2915.111328	407.914398
2914.473877	462.754395
2913.836182	431.314545
2913.198486	454.770477
2912.560791	435.101013
2911.922852	466.387543
2911.284912	434.966492
2910.646729	474.079346
2910.008545	493.593048
2909.370361	466.099121
2908.731934	536.518555
2908.093506	579.507019
2907.455078	555.927490
2906.816406	563.670288
2906.177490	637.944763
2905.538574	661.325073
2904.899658	680.785583
2904.260498	751.095459
2903.621338	707.954407
2902.982178	676.558899
2902.342773	782.028015
2901.703369	746.721191
2901.063721	785.694946
2900.424072	707.406860
2899.784424	699.481934
2899.144531	742.351990
2898.504639	679.732910
2897.864502	695.251343
2897.224365	659.995972
2896.583984	613.037476
2895.943848	632.463013
2895.303223	636.268616
2894.662842	640.072998
2894.021973	643.876160
2893.381348	612.563049
2892.740479	631.973572
2892.099609	639.676636
2891.458496	616.178406
2890.817383	686.269653
2890.176025	701.757996
2889.534668	764.018127
2888.893311	736.617676
2888.251709	771.575134
2887.610107	767.559387
2886.968262	814.188110
2886.326416	794.586853
2885.684570	880.141174
2885.042480	876.111023
2884.400391	825.363342
2883.758057	914.765686
2883.115723	949.652100
2882.473389	992.310486
2881.830811	1007.719971
2881.188232	988.112732
2880.545410	952.953125
2879.902588	886.692444
2879.259766	975.988159
2878.616699	929.183289
2877.973633	929.039246
2877.330322	925.008667
2876.687012	812.171570
2876.043457	765.421021
2875.399902	796.380615
2874.756348	776.836182
2874.112549	749.530701
2873.468750	757.180420
2872.824707	698.827393
2872.180664	698.718994
2871.536621	652.036560
2870.892334	655.815979
2870.248047	647.954346
2869.603760	628.457031
2868.958984	667.147156
2868.314453	701.947083
2867.669678	694.083069
2867.024902	740.498840
2866.379883	736.507568
2865.734863	713.138794
2865.089844	775.030579
2864.444580	805.906677
2863.799316	716.680786
2863.153809	751.429688
2862.508301	697.094604
2861.862549	704.730652
2861.216797	576.860291
2860.571045	584.512634
2859.925049	483.792938
2859.279053	445.020386
2858.632813	448.820435
2857.986572	352.037231
2857.340332	336.510803
2856.693848	266.846436
2856.047363	328.672821
2855.400635	313.157227
2854.753906	243.528900
2854.107178	228.031326
2853.460205	227.995911
2852.813232	270.461609
2852.166016	185.430573
2851.518799	227.889679
2850.871338	216.268463
2850.223877	231.680206
2849.576416	204.619049
2848.928711	243.188629
2848.281006	239.291306
2847.633301	227.677307
2846.985352	266.225311
2846.337158	297.045837
2845.688965	293.142517
2845.040771	331.662354
2844.392578	331.610809
2843.743896	373.967987
2843.095459	389.328827
2842.446777	385.414154
2841.798096	420.036133
2841.149170	435.382599
2840.500244	466.133636
2839.851074	500.726868
2839.202148	512.202454
2838.552734	592.984314
2837.903320	558.242554
2837.253906	569.703796
2836.604492	646.590210
2835.954834	596.463623
2835.304932	557.895325
2834.655029	507.798096
2834.005127	507.719116
2833.354980	499.948608
2832.704834	407.586975
2832.054688	376.767059
2831.404297	376.708435
2830.753906	311.312622
2830.103271	303.578644
2829.452637	242.056671
2828.801758	199.761719
2828.150879	230.458420
2827.500000	153.615036
2826.848877	153.591125
2826.197754	126.692955
2825.546387	134.350388
2824.895020	138.167465
2824.243408	130.471176
2823.591797	157.308395
2822.940186	126.594360
2822.288330	88.218697
2821.636475	92.039955
2820.984619	88.191223
2820.332520	95.845093
2819.680176	68.997719
2819.028076	91.982635
2818.375488	88.136292
2817.723145	72.796898
2817.070557	68.954742
2816.417725	61.283554
2815.764893	76.592514
2815.112061	80.409607
2814.458984	53.598053
2813.805908	65.073212
2813.152832	61.235828
2812.499512	53.573002
2811.845947	72.694885
2811.192383	53.556305
2810.538818	61.197666
2809.885010	49.715351
2809.231201	61.178589
2808.577393	61.169052
2807.923340	61.159519
2807.269287	53.506233
2806.614990	84.068115
2805.960693	64.951599
2805.306152	34.380779
2804.651611	34.375420
2803.997070	57.283428
2803.342285	53.456196
2802.687500	41.994747
2802.032471	45.805305
2801.377441	30.532108
2800.722412	68.686531
2800.067139	30.522585
2799.411621	45.776733
2798.756348	30.513062
2798.100586	49.575993
2797.445068	34.316486
2796.789307	45.748173
2796.133301	34.305779
2795.477539	45.733898
2794.821289	49.537327
2794.165283	19.049845
2793.509033	45.712490
2792.852539	19.043898
2792.196045	34.273666
2791.539551	30.460726
2790.882813	38.069965
2790.226074	68.515236
2789.569092	26.640656
2788.912109	30.441710
2788.255127	38.046196
2787.597900	30.432205
2786.940430	53.248043
2786.283203	22.817026
2785.625488	30.417950
2784.968018	53.223099
2784.310303	53.214787
2783.652588	49.406013
2782.994629	41.798557
2782.336426	34.193478
2781.678467	18.993410
2781.020264	49.375149
2780.361816	45.569942
2779.703369	41.765919
2779.044922	37.963085
2778.386230	45.548584
2777.727539	37.951221
2777.068604	22.767176
2776.409668	45.527233
2775.750732	45.520119
2775.091553	22.756502
2774.432373	56.882362
2773.772949	37.915646
2773.113525	34.118748
2772.453857	45.484554
2771.794189	26.528507
2771.134521	15.156777
2770.474609	30.308815
2769.814697	45.456116
2769.154541	49.236423
2768.494385	30.294600
2767.833984	37.862328
2767.173584	49.213326
2766.513184	15.140194
2765.852539	49.197933
2765.191895	45.406376
2764.531006	45.399273
2763.870117	7.565361
2763.209229	41.602978
2762.548096	64.285454
2761.886719	30.247246
2761.225586	37.803143
2760.563965	34.017502
2759.902588	60.466099
2759.240967	45.342476
2758.579102	49.113327
2757.917236	49.105640
2757.255371	64.205017
2756.593262	37.761745
2755.931152	41.531418
2755.269043	45.299911
2754.606689	56.616024
2753.944092	30.190485
2753.281494	79.237617
2752.618896	56.589436
2751.956055	41.492420
2751.293213	52.800266
2750.630371	71.646286
2749.967285	75.405327
2749.303955	30.157408
2748.640625	60.305370
2747.977295	67.832916
2747.313721	60.286480
2746.650146	45.207775
2745.986572	60.267593
2745.322754	67.790421
2744.658691	56.483166
2743.994873	64.004227
2743.330566	82.816017
2742.666504	86.566818
2742.002197	71.500511
2741.337646	75.251900
2740.673096	63.954090
2740.008545	71.466896
2739.343750	82.738174
2738.678955	90.245682
2738.013916	78.952591
2737.348877	78.940216
2736.683594	82.686310
2736.018311	52.610310
2735.353027	63.873932
2734.687500	93.917526
2734.021973	82.634460
2733.356201	75.110458
2732.690430	75.098679
2732.024658	90.104279
2731.358643	86.336395
2730.692383	108.841858
2730.026367	90.061890
2729.359863	105.055725
2728.693604	101.287842
2728.027100	93.770325
2727.360352	97.505836
2726.693604	127.487625
2726.026855	127.467628
2725.359863	119.950706
2724.692871	119.931885
2724.025635	112.418495
2723.358398	153.614502
2722.691162	138.605957
2722.023682	161.057312
2721.355957	161.032043
2720.688477	183.472824
2720.020508	157.237732
2719.352783	190.901550
2718.684814	175.901260
2718.016602	149.679703
2717.348389	123.466362
2716.680176	112.224525
2716.011719	115.947136
2715.343262	108.449638
2714.674561	108.432610
2714.005859	149.538727
2713.337158	104.660667
2712.668213	104.644226
2711.999023	97.154381
2711.329834	104.611359
2710.660645	104.594925
2709.991455	89.638702
2709.321777	108.296417
2708.652344	119.480721
2707.982666	85.863274
2707.312988	93.314980
2706.643066	93.300316
2705.972900	67.165672
2705.302979	89.540154
2704.632813	82.065575
2703.962402	96.971336
2703.291992	93.227020
2702.621582	89.483864
2701.950928	85.741890
2701.280273	52.182510
2700.609375	63.354515
2699.938477	81.975304
2699.267334	40.981209
2698.596191	44.699741
2697.925049	85.661034
2697.253662	78.199951
2696.582031	52.125099
2695.910645	70.730080
2695.239014	55.830753
2694.567139	66.986366
2693.895264	55.813190
2693.223145	44.643528
2692.551270	48.356213
2691.878906	55.786854
2691.206543	66.933693
2690.534180	44.615440
2689.861816	70.629997
2689.189209	55.751747
2688.516357	63.175369
2687.843506	44.587360
2687.170654	48.295372
2686.497559	44.573326
2685.824463	70.563324
2685.151123	77.978767
2684.477783	59.403042
2683.804199	55.681583
2683.130615	59.384338
2682.457031	51.953114
2681.783203	33.393173
2681.109375	44.517216
2680.435303	44.510208
2679.761230	51.920399
2679.086914	51.912220
2678.412598	70.441200
2677.738281	66.723259
2677.063721	63.006485
2676.389160	70.407921
2675.714355	62.986637
2675.039551	74.090248
2674.364502	44.447147
2673.689453	66.660217
2673.014404	40.730381
2672.339111	62.937031
2671.663574	37.015949
2670.988037	44.412140
2670.312500	59.206852
2669.636719	55.497677
2668.960938	44.391144
2668.285156	51.781502
2667.609131	44.377148
2666.932861	18.487564
2666.256592	66.544739
2665.580322	55.445206
2664.903809	33.261879
2664.227295	51.732540
2663.550781	66.502777
2662.874023	59.104259
2662.197021	51.708069
2661.520020	62.778469
2660.843018	73.845375
2660.165771	36.916862
2659.488525	55.366558
2658.811035	36.905216
2658.133545	44.279274
2657.455811	62.719074
2656.778076	44.265305
2656.100342	55.322899
2655.422363	51.626560
2654.744385	66.366531
2654.066162	47.923820
2653.387939	55.287987
2652.709473	62.649830
2652.031006	77.378754
2651.352539	44.209450
2650.673828	47.886013
2649.994873	69.976196
2649.316162	40.506142
2648.636963	73.635902
2647.958008	69.943062
2647.278809	58.890121
2646.599365	51.520721
2645.919922	55.192055
2645.240479	58.862228
2644.560791	66.209549
2643.880859	80.910004
2643.201172	51.480049
2642.520996	55.148483
2641.841064	66.167732
2641.160889	62.481873
2640.480469	58.797176
2639.800049	47.765160
2639.119629	33.062962
2638.438965	62.442394
2637.758301	66.105034
2637.077393	44.063057
2636.396484	44.056095
2635.715332	25.695326
2635.034180	25.691265
2634.353027	29.356806
2633.671631	66.042374
2632.989990	44.021290
2632.308350	55.017914
2631.626709	47.674652
2630.944824	40.333714
2630.262939	47.659580
2629.581055	21.993252
2628.898926	62.304359
2628.216553	32.979443
