#Wave		#Intensity
3200.600830	54.728081
3200.007080	50.518227
3199.413086	75.765892
3198.819092	37.877220
3198.224854	33.663551
3197.630615	54.695000
3197.036377	46.273388
3196.442139	21.030178
3195.847656	46.259399
3195.252930	46.252407
3194.658447	29.428900
3194.063721	67.255882
3193.468750	96.665718
3192.873779	33.617775
3192.278809	71.426964
3191.683838	58.813313
3191.088623	46.203472
3190.493164	46.196484
3189.897949	50.388542
3189.302490	37.785690
3188.706787	50.373299
3188.111328	54.562820
3187.515381	33.572041
3186.919678	88.113274
3186.323730	71.319000
3185.727783	50.335209
3185.131592	71.297424
3184.535400	54.513309
3183.939209	54.505058
3183.342773	25.152374
3182.746338	58.679993
3182.149902	25.144762
3181.553223	29.331116
3180.956543	67.032402
3180.359619	46.077805
3179.762695	67.012115
3179.165771	67.001968
3178.568604	20.934946
3177.971436	46.049908
3177.374268	71.157265
3176.776855	41.850880
3176.179443	50.213451
3175.581787	46.022026
3174.984131	62.747807
3174.386475	41.825535
3173.788574	41.819202
3173.190674	75.263161
3172.592773	91.974380
3171.994629	33.440163
3171.396484	66.870193
3170.798340	62.681313
3170.199951	87.740547
3169.601563	66.839813
3169.002930	50.122265
3168.404297	50.114670
3167.805664	100.214157
3167.206787	50.099487
3166.607910	75.137840
3166.008789	58.431690
3165.409912	50.076714
3164.810547	45.896698
3164.211426	66.748718
3163.612061	45.882790
3163.012695	62.557957
3162.413086	79.228065
3161.813477	54.200459
3161.213623	37.517708
3160.614014	58.352032
3160.013916	54.175816
3159.414063	45.834122
3158.813965	41.661068
3158.213867	24.992851
3157.613525	41.648434
3157.013184	54.134754
3156.412598	70.780869
3155.812256	37.466541
3155.211426	58.272446
3154.610840	45.778549
3154.010010	33.288441
3153.409180	58.245937
3152.808105	58.237103
3152.207031	70.705750
3151.605957	49.902370
3151.004639	87.315903
3150.403320	58.201771
3149.801758	37.409748
3149.200195	74.808144
3148.598633	58.175282
3147.996826	37.392719
3147.395020	91.390556
3146.793213	62.302284
3146.191162	74.751396
3145.589111	45.674477
3144.986816	41.515949
3144.384766	78.868332
3143.782227	41.503345
3143.179932	29.047932
3142.577393	49.788895
3141.974609	45.632893
3141.371826	103.695374
3140.769043	91.238068
3140.166260	78.784554
3139.563232	29.021481
3138.960205	103.632401
3138.356934	45.591331
3137.753662	62.160557
3137.150391	29.003855
3136.546875	66.284454
3135.943359	53.847939
3135.339600	70.405838
3134.735840	57.972473
3134.132080	33.122097
3133.528076	41.396328
3132.924072	82.780083
3132.320068	62.075626
3131.715820	41.377464
3131.111572	37.234058
3130.507080	66.183823
3129.902588	62.037907
3129.298096	62.028477
3128.693604	53.749844
3128.088867	53.741676
3127.483887	82.666931
3126.878906	49.592621
3126.273926	78.509712
3125.668945	74.366318
3125.063721	45.439175
3124.458252	45.432266
3123.853027	78.461983
3123.247559	78.450058
3122.641846	45.411549
3122.036133	78.426201
3121.430420	82.541344
3120.824707	99.034546
3120.218750	90.767860
3119.612549	78.378502
3119.006592	65.992912
3118.400391	28.867508
3117.793945	53.602932
3117.187500	103.066879
3116.581055	94.807106
3115.974609	53.578472
3115.367920	74.174294
3114.760986	49.442005
3114.154297	94.749420
3113.547363	65.902611
3112.940186	78.247444
3112.333008	24.705959
3111.725830	57.638466
3111.118408	90.560944
3110.510986	82.315605
3109.903564	98.763687
3109.295898	102.863182
3108.688232	53.480713
3108.080566	53.472572
3107.472656	61.689732
3106.864746	148.032806
3106.256592	41.113964
3105.648438	41.107704
3105.040039	73.982605
3104.431885	69.861816
3103.823486	61.633396
3103.214844	82.165344
3102.606201	41.076416
3101.997559	49.284191
3101.388672	106.766151
3100.779785	78.009537
3100.170898	73.892517
3099.561768	86.194801
3098.952637	53.350559
3098.343262	94.375069
3097.733887	73.847496
3097.124512	82.040276
3096.514893	86.129166
3095.905273	98.418335
3095.295410	57.401947
3094.685791	77.890770
3094.075684	57.384453
3093.465820	86.063560
3092.855713	86.050446
3092.245361	94.231361
3091.635254	106.506172
3091.024658	94.202637
3090.414307	85.997993
3089.803711	77.795845
3089.193115	77.783989
3088.582275	94.145203
3087.971436	85.945557
3087.360596	98.208519
3086.749512	69.553764
3086.138428	61.361607
3085.527100	49.081802
3084.915771	57.253368
3084.304443	32.711220
3083.692871	61.324184
3083.081299	89.928421
3082.469482	77.653603
3081.857910	73.555351
3081.245850	49.029423
3080.634033	53.107105
3080.021973	53.099003
3079.409668	77.594391
3078.797607	73.499260
3078.185059	81.653381
3077.572754	106.133202
3076.960205	97.954163
3076.347656	97.939209
3075.734863	97.924263
3075.122070	69.352432
3074.509033	57.105053
3073.895996	85.644508
3073.282959	61.165310
3072.669922	85.618362
3072.056641	77.452408
3071.443115	77.440582
3070.829834	89.654350
3070.216064	57.044060
3069.602539	97.774887
3068.988770	65.173302
3068.375000	89.599609
3067.760986	44.792961
3067.146973	85.500778
3066.532715	101.771095
3065.918701	93.615105
3065.304199	77.322411
3064.689941	97.655487
3064.075439	89.503860
3063.460693	77.286980
3062.846191	77.275169
3062.231445	69.130379
3061.616455	97.580917
3061.001465	77.239761
3060.386475	117.874245
3059.771240	117.856239
3059.156006	101.584679
3058.540771	97.506386
3057.925293	121.864357
3057.309814	85.292015
3056.694092	101.522591
3056.078369	60.904243
3055.462646	109.610878
3054.846680	44.649460
3054.230713	64.934738
3053.614502	105.502823
3052.998291	77.086426
3052.382080	73.018082
3051.765625	36.503456
3051.149170	93.272354
3050.532715	64.875191
3049.916016	81.081589
3049.299316	97.283028
3048.682373	77.003952
3048.065430	85.096611
3047.448486	44.567596
3046.831299	76.968620
3046.214111	85.057571
3045.596680	72.895332
3044.979248	141.719238
3044.361816	68.824532
3043.744141	93.101295
3043.126465	117.370628
3042.508545	89.026161
3041.890869	97.104584
3041.272705	93.044319
3040.654785	105.164444
3040.036621	93.015846
3039.418213	109.175804
3038.799805	113.202019
3038.181396	92.973137
3037.562988	72.750450
3036.944336	64.657166
3036.325439	113.132721
3035.706543	113.115402
3035.087646	109.058868
3034.468750	84.810577
3033.849609	92.873550
3033.230469	96.896690
3032.611084	113.028824
3031.991699	64.578011
3031.372070	100.887688
3030.752441	112.976906
3030.132813	133.130951
3029.513184	96.807686
3028.893066	68.561607
3028.273193	145.167038
3027.653076	100.795006
3027.032959	120.935471
3026.412598	88.672424
3025.792480	104.778625
3025.171875	96.703911
3024.551270	96.689095
3023.930664	108.758568
3023.310059	112.769379
3022.689209	120.805817
3022.068115	116.761055
3021.447266	84.538147
3020.826172	88.550201
3020.204834	124.756157
3019.583496	140.832138
3018.962158	84.486328
3018.340576	68.383209
3017.718994	84.460426
3017.097412	112.596634
3016.475586	140.724213
3015.853760	76.381432
3015.231689	144.700516
3014.609619	104.489899
3013.987549	96.437424
3013.365234	152.669174
3012.742920	88.373856
3012.120361	120.491325
3011.497803	100.394035
3010.875244	52.196888
3010.252441	124.450409
3009.629639	92.320007
3009.006836	92.305847
3008.383789	120.380455
3007.760498	120.361984
3007.137451	140.400772
3006.514160	128.346725
3005.890625	112.286148
3005.267090	168.403381
3004.643555	136.305618
3004.019775	128.267944
3003.395996	120.232750
3002.772217	92.164291
3002.148193	164.267639
3001.524170	108.159645
3000.899902	132.174835
3000.275635	88.103027
2999.651367	108.109840
2999.026855	88.075974
2998.402344	100.070969
2997.777588	156.086731
2997.152832	112.045059
2996.528076	72.017906
2995.903076	148.014069
2995.278076	119.992981
2994.653076	123.973701
2994.027832	139.948807
2993.402344	91.952232
2992.777100	111.924652
2992.151367	123.897545
2991.525879	143.858917
2990.900146	75.913872
2990.274414	171.778687
2989.648438	135.804138
2989.022461	131.789642
2988.396240	107.811317
2987.770264	123.764343
2987.143799	111.769966
2986.517578	131.708649
2985.891113	143.660065
2985.264404	159.597763
2984.637695	151.594574
2984.010986	115.672806
2983.384033	127.619339
2982.757080	167.474640
2982.130127	171.435760
2981.502930	183.368195
2980.875732	155.440445
2980.248291	195.266922
2979.620850	211.174606
2978.993408	171.304001
2978.365723	135.428833
2977.738037	191.164246
2977.110107	183.170898
2976.482178	191.105453
2975.854248	222.922058
2975.226074	206.967209
2974.597900	222.853470
2973.969482	198.945709
2973.341309	230.741516
2972.712646	258.549835
2972.083984	258.510071
2971.455322	254.493820
2970.826660	286.261475
2970.197754	278.266937
2969.568604	302.071899
2968.939697	357.661682
2968.310547	369.526825
2967.681152	365.497162
2967.051758	436.940216
2966.422363	333.612061
2965.792725	369.299347
2965.163086	448.649506
2964.533203	424.761993
2963.903564	460.418732
2963.273438	488.127441
2962.643311	456.309052
2962.013184	511.780884
2961.383057	551.368896
2960.752686	456.098267
2960.122314	507.579010
2959.491699	555.079041
2958.861084	531.208130
2958.230225	566.798950
2957.599609	574.637634
2956.968506	503.225800
2956.337646	554.651611
2955.706299	526.837891
2955.075195	538.638428
2954.443848	526.675537
2953.812500	518.675659
2953.180908	490.884521
2952.549316	538.306519
2951.917725	542.181030
2951.285889	494.614502
2950.653809	462.887817
2950.021973	466.772156
2949.389893	518.116333
2948.757568	490.355133
2948.125244	423.063782
2947.492920	486.250702
2946.860352	438.743958
2946.227783	411.012024
2945.595215	426.754364
2944.962402	418.786926
2944.329590	383.170441
2943.696533	359.413757
2943.063477	387.001251
2942.430420	359.302887
2941.797119	327.665283
2941.163574	335.509064
2940.530273	359.136658
2939.896729	311.729889
2939.262939	315.627136
2938.629150	303.744232
2937.995361	406.244537
2937.361328	358.859711
2936.727295	327.261078
2936.093262	299.614532
2935.458984	303.509979
2934.824707	319.227448
2934.190186	334.940063
2933.555664	378.226868
2932.921143	386.046997
2932.286377	378.110107
2931.651367	425.308228
2931.016602	437.054871
2930.381592	448.797852
2929.746338	413.302643
2929.111084	507.693390
2928.475830	456.460022
2927.840332	515.405396
2927.204834	538.928528
2926.569336	570.310730
2925.933594	511.234100
2925.297607	566.202637
2924.661865	573.977905
2924.025879	554.235474
2923.389648	609.171875
2922.753418	656.232178
2922.117188	561.836548
2921.480713	601.032959
2920.844238	675.566650
2920.207764	620.482788
2919.571045	659.651917
2918.934082	632.068726
2918.297363	561.315918
2917.660156	627.948730
2917.023193	639.623901
2916.385986	568.902649
2915.748779	604.120422
2915.111328	627.560608
2914.473877	556.873901
2913.836182	611.682434
2913.198486	591.985718
2912.560791	611.493286
2911.922852	587.883423
2911.284912	662.246277
2910.646729	599.455688
2910.008545	587.610779
2909.370361	595.353516
2908.731934	618.758606
2908.093506	606.916138
2907.455078	649.887085
2906.816406	669.358459
2906.177490	739.702820
2905.538574	665.238220
2904.899658	712.086060
2904.260498	794.126953
2903.621338	794.004089
2902.982178	844.720947
2902.342773	793.758423
2901.703369	758.449829
2901.063721	711.425293
2900.424072	695.681885
2899.784424	820.621277
2899.144531	742.351990
2898.504639	750.050110
2897.864502	746.028076
2897.224365	753.723206
2896.583984	691.131409
2895.943848	773.010376
2895.303223	694.820923
2894.662842	694.713379
2894.021973	784.358215
2893.381348	729.613342
2892.740479	713.896057
2892.099609	744.989258
2891.458496	748.773743
2890.817383	733.060791
2890.176025	674.467407
2889.534668	814.692810
2888.893311	791.181946
2888.251709	787.162537
2887.610107	794.833069
2886.968262	763.544861
2886.326416	880.277588
2885.684570	884.035645
2885.042480	852.748047
2884.400391	973.305847
2883.758057	965.369751
2883.115723	906.839905
2882.473389	895.025146
2881.830811	945.466980
2881.188232	941.430237
2880.545410	980.180359
2879.902588	1073.364502
2879.259766	972.099731
2878.616699	964.173462
2877.973633	1065.091064
2877.330322	1006.627075
2876.687012	971.497070
2876.043457	920.836426
2875.399902	889.615417
2874.756348	908.898376
2874.112549	873.805176
2873.468750	869.786743
2872.824707	958.946411
2872.180664	896.689331
2871.536621	838.332703
2870.892334	838.202698
2870.248047	869.112427
2869.603760	834.063293
2868.958984	795.146301
2868.314453	930.758545
2867.669678	907.348816
2867.024902	829.668884
2866.379883	922.572693
2865.734863	844.914429
2865.089844	937.786987
2864.444580	864.024963
2863.799316	867.764832
2863.153809	867.630127
2862.508301	797.786011
2861.862549	813.150757
2861.216797	739.465210
2860.571045	731.608521
2859.925049	716.013550
2859.279053	626.898315
2858.632813	584.240417
2857.986572	568.675537
2857.340332	506.700195
2856.693848	502.754150
2856.047363	494.942596
2855.400635	463.936646
2854.753906	506.385498
2854.107178	502.441925
2853.460205	486.906525
2852.813232	463.648468
2852.166016	467.439575
2851.518799	424.879059
2850.871338	467.294373
2850.223877	451.776398
2849.576416	505.756531
2848.928711	451.636017
2848.281006	482.442139
2847.633301	497.802917
2846.985352	497.725555
2846.337158	489.932739
2845.688965	539.999390
2845.040771	501.350067
2844.392578	586.102844
2843.743896	528.181580
2843.095459	655.305969
2842.446777	608.954346
2841.798096	597.299072
2841.149170	566.382690
2840.500244	674.160217
2839.851074	685.610657
2839.202148	639.290283
2838.552734	731.604004
2837.903320	681.440918
2837.253906	750.623230
2836.604492	700.472717
2835.954834	665.730347
2835.304932	707.949890
2834.655029	634.747620
2834.005127	603.878052
2833.354980	565.326477
2832.704834	534.477295
2832.054688	526.704956
2831.404297	511.247162
2830.753906	430.456940
2830.103271	426.547180
2829.452637	391.901276
2828.801758	299.642578
2828.150879	399.461273
2827.500000	360.995331
2826.848877	280.303802
2826.197754	326.330322
2825.546387	303.248047
2824.895020	237.955078
2824.243408	291.641449
2823.591797	230.207413
2822.940186	295.386841
2822.288330	306.847626
2821.636475	230.099884
2820.984619	249.236069
2820.332520	260.698669
2819.680176	214.659576
2819.028076	237.621796
2818.375488	229.920761
2817.723145	199.233627
2817.070557	249.003235
2816.417725	233.643555
2815.764893	241.266403
2815.112061	283.348145
2814.458984	233.534363
2813.805908	218.186646
2813.152832	256.425049
2812.499512	233.425217
2811.845947	225.736740
2811.192383	206.574310
2810.538818	225.666397
2809.885010	233.279739
2809.231201	210.301407
2808.577393	256.145416
2807.923340	206.413376
2807.269287	206.381195
2806.614990	221.634125
2805.960693	240.702988
2805.306152	221.565018
2804.651611	217.710983
2803.997070	198.582550
2803.342285	194.733292
2802.687500	217.609146
2802.032471	221.392319
2801.377441	217.541275
2800.722412	217.507339
2800.067139	217.473419
2799.411621	244.142578
2798.756348	190.706635
2798.100586	198.303970
2797.445068	190.647141
2796.789307	205.866791
2796.133301	243.952194
2795.477539	224.858337
2794.821289	205.770432
2794.165283	240.028030
2793.509033	217.134323
2792.852539	194.247757
2792.196045	247.532043
2791.539551	186.571945
2790.882813	216.998795
2790.226074	213.158524
2789.569092	167.455551
2788.912109	235.923248
2788.255127	247.300278
2787.597900	239.653610
2786.940430	228.205887
2786.283203	197.747559
2785.625488	193.914429
2784.968018	224.297348
2784.310303	212.859146
2783.652588	224.227295
2782.994629	231.792007
2782.336426	243.153625
2781.678467	254.511688
2781.020264	178.510162
2780.361816	246.837173
2779.703369	243.001709
2779.044922	167.037567
2778.386230	212.560059
2777.727539	220.117081
2777.068604	235.260803
2776.409668	201.078613
2775.750732	238.980621
2775.091553	216.186768
2774.432373	200.984344
2773.772949	227.493881
2773.113525	242.622208
2772.453857	204.680481
2771.794189	219.807632
2771.134521	208.405685
2770.474609	208.373108
2769.814697	238.644592
2769.154541	208.307938
2768.494385	215.849014
2767.833984	204.456573
2767.173584	246.066635
2766.513184	249.813202
2765.852539	234.636307
2765.191895	272.438232
2764.531006	200.513443
2763.870117	204.264755
2763.209229	192.886536
2762.548096	242.015823
2761.886719	200.388000
2761.225586	196.576324
2760.563965	215.444183
2759.902588	241.864395
2759.240967	226.712387
2758.579102	249.344589
2757.917236	245.528214
2757.255371	196.391830
2756.593262	237.899002
2755.931152	256.739685
2755.269043	249.149506
2754.606689	230.238495
2753.944092	260.392944
2753.281494	245.259293
2752.618896	248.993515
2751.956055	230.094330
2751.293213	237.601196
2750.630371	230.022278
2749.967285	248.837585
2749.303955	229.950241
2748.640625	320.372284
2747.977295	312.785095
2747.313721	237.378006
2746.650146	267.479340
2745.986572	248.603821
2745.322754	263.629425
2744.658691	312.540192
2743.994873	267.311768
2743.330566	267.269867
2742.666504	237.117798
2742.002197	263.422943
2741.337646	278.432037
2740.673096	282.150391
2740.008545	240.730606
2739.343750	248.214523
2738.678955	304.579163
2738.013916	255.656006
2737.348877	300.724640
2736.683594	308.194427
2736.018311	304.388214
2735.353027	289.311340
2734.687500	244.185562
2734.021973	270.440063
2733.356201	262.886597
2732.690430	262.845367
2732.024658	319.119324
2731.358643	300.300507
2730.692383	349.044586
2730.026367	303.958893
2729.359863	285.151245
2728.693604	307.614929
2728.027100	341.323975
2727.360352	333.769989
2726.693604	363.714691
2726.026855	296.174774
2725.359863	307.373688
2724.692871	386.030731
2724.025635	397.212006
2723.358398	322.215790
2722.691162	348.387939
2722.023682	337.096710
2721.355957	340.788727
2720.688477	393.156036
2720.020508	423.044373
2719.352783	336.885101
2718.684814	314.376740
2718.016602	359.231293
2717.348389	344.209259
2716.680176	381.563385
2716.011719	366.542542
2715.343262	299.171417
2714.674561	370.166473
2714.005859	332.723663
2713.337158	332.671417
2712.668213	328.881866
2711.999023	321.356781
2711.329834	317.570190
2710.660645	302.578156
2709.991455	317.470398
2709.321777	324.889252
2708.652344	328.571991
2707.982666	306.121246
2707.312988	328.468719
2706.643066	279.900940
2705.972900	294.782654
2705.302979	350.698914
2704.632813	328.262299
2703.962402	294.643677
2703.291992	302.055542
2702.621582	279.637085
2701.950928	279.593109
2701.280273	290.731140
2700.609375	227.330902
2699.938477	339.079681
2699.267334	327.849670
2698.596191	283.098358
2697.925049	346.368530
2697.253662	275.561707
2696.582031	305.304138
2695.910645	308.978760
2695.239014	290.319916
2694.567139	238.173752
2693.895264	316.274750
2693.223145	275.301758
2692.551270	264.099335
2691.878906	271.496002
2691.206543	290.045990
2690.534180	290.000366
2689.861816	263.933136
2689.189209	315.926575
2688.516357	304.728271
2687.843506	304.680298
2687.170654	312.062408
2686.497559	319.442169
2685.824463	267.397858
2685.151123	304.488525
2684.477783	304.440582
2683.804199	308.104767
2683.130615	293.210175
2682.457031	270.898376
2681.783203	281.986786
2681.109375	296.781464
2680.435303	267.061249
2679.761230	278.144989
2679.086914	315.181335
2678.412598	281.764801
2677.738281	322.495758
2677.063721	333.563751
2676.389160	329.805511
2675.714355	285.292419
2675.039551	292.656494
2674.364502	322.241821
2673.689453	288.860931
2673.014404	329.545807
2672.339111	299.876434
2671.663574	277.619629
2670.988037	273.874847
2670.312500	288.633392
2669.636719	277.488373
2668.960938	299.640198
2668.285156	292.195618
2667.609131	325.432434
2666.932861	325.381134
2666.256592	258.785095
2665.580322	325.278534
2664.903809	295.661133
2664.227295	291.919342
2663.550781	328.819275
2662.874023	258.581116
2662.197021	291.781250
2661.520020	280.656677
2660.843018	287.996948
2660.165771	291.643219
2659.488525	295.288330
2658.811035	302.622772
2658.133545	317.334808
2657.455811	302.527313
2656.778076	328.300995
2656.100342	335.625580
2655.422363	287.633698
2654.744385	294.962341
2654.066162	302.288696
2653.387939	313.298584
2652.709473	316.934418
2652.031006	309.515015
2651.352539	276.309052
2650.673828	287.316071
2649.994873	316.734375
2649.316162	231.989716
2648.636963	309.270782
2647.958008	305.540741
2647.278809	294.450592
2646.599365	334.884674
2645.919922	312.754974
2645.240479	301.668915
2644.560791	338.404358
2643.880859	286.862732
2643.201172	301.526001
2642.520996	349.273743
2641.841064	312.458710
