#Wave		#Intensity
3200.600830	16.839409
3200.007080	4.209852
3199.413086	8.418432
3198.819092	4.208580
3198.224854	-8.415888
3197.630615	8.414616
3197.036377	8.413343
3196.442139	16.824142
3195.847656	0.000000
3195.252930	8.409529
3194.658447	16.816513
3194.063721	12.610478
3193.468750	16.811428
3192.873779	16.808887
3192.278809	0.000000
3191.683838	-12.602853
3191.088623	16.801262
3190.493164	25.198082
3189.897949	16.796181
3189.302490	37.785690
3188.706787	16.791100
3188.111328	12.591420
3187.515381	16.786020
3186.919678	-4.195870
3186.323730	8.390471
3185.727783	12.583802
3185.131592	16.775864
3184.535400	0.000000
3183.939209	-4.192697
3183.342773	4.192062
3182.746338	16.765713
3182.149902	16.763174
3181.553223	20.950798
3180.956543	25.137152
3180.359619	8.377783
3179.762695	4.188257
3179.165771	-4.187623
3178.568604	12.560967
3177.971436	12.559066
3177.374268	20.928608
3176.776855	8.370175
3176.179443	4.184454
3175.581787	8.367641
3174.984131	12.549562
3174.386475	16.730215
3173.788574	8.363840
3173.190674	4.181287
3172.592773	4.180654
3171.994629	20.900103
3171.396484	8.358774
3170.798340	20.893770
3170.199951	4.178121
3169.601563	29.242418
3169.002930	4.176856
3168.404297	-8.352446
3167.805664	29.229130
3167.206787	20.874786
3166.607910	8.348649
3166.008789	4.173692
3165.409912	25.038357
3164.810547	12.517282
3164.211426	20.858974
3163.612061	8.342325
3163.012695	33.364243
3162.413086	25.019390
3161.813477	16.677065
3161.213623	8.337268
3160.614014	12.504006
3160.013916	25.004221
3159.414063	4.166739
3158.813965	29.162746
3158.213867	12.496426
3157.613525	8.329687
3157.013184	12.492636
3156.412598	4.163580
3155.812256	24.977694
3155.211426	20.811588
3154.610840	16.646746
3154.010010	0.000000
3153.409180	20.802120
3152.808105	16.639172
3152.207031	0.000000
3151.605957	4.158531
3151.004639	8.315800
3150.403320	24.943615
3149.801758	41.566383
3149.200195	20.780039
3148.598633	24.932262
3147.996826	8.309493
3147.395020	4.154116
3146.793213	16.613943
3146.191162	-4.152855
3145.589111	12.456676
3144.986816	4.151595
3144.384766	-4.150965
3143.782227	0.000000
3143.179932	16.598818
3142.577393	20.745373
3141.974609	8.296889
3141.371826	24.886889
3140.769043	20.735926
3140.166260	4.146555
3139.563232	0.000000
3138.960205	0.000000
3138.356934	33.157333
3137.753662	12.432112
3137.150391	16.573631
3136.546875	0.000000
3135.943359	0.000000
3135.339600	16.566080
3134.735840	4.140891
3134.132080	4.140262
3133.528076	4.139633
3132.924072	16.556017
3132.320068	16.553501
3131.715820	16.550985
3131.111572	-4.137118
3130.507080	4.136489
3129.902588	20.679302
3129.298096	0.000000
3128.693604	-4.134604
3128.088867	24.803850
3127.483887	8.266693
3126.878906	-12.398155
3126.273926	8.264180
3125.668945	8.262924
3125.063721	41.308342
3124.458252	41.302059
3123.853027	24.777470
3123.247559	8.257900
3122.641846	16.513290
3122.036133	16.510778
3121.430420	33.016537
3120.824707	8.252879
3120.218750	33.006496
3119.612549	16.500738
3119.006592	8.249114
3118.400391	20.619648
3117.793945	4.123302
3117.187500	20.613377
3116.581055	-4.122048
3115.974609	20.607105
3115.367920	24.724764
3114.760986	32.961334
3114.154297	28.836781
3113.547363	4.118913
3112.940186	16.473146
3112.333008	4.117660
3111.725830	12.351100
3111.118408	24.698441
3110.510986	20.578901
3109.903564	12.345461
3109.295898	12.343582
3108.688232	24.683407
3108.080566	32.906200
3107.472656	0.000000
3106.864746	-8.224045
3106.256592	8.222793
3105.648438	28.775394
3105.040039	28.771013
3104.431885	20.547594
3103.823486	4.108893
3103.214844	16.433069
3102.606201	20.538208
3101.997559	4.107016
3101.388672	28.744734
3100.779785	45.163418
3100.170898	24.630838
3099.561768	16.418058
3098.952637	-16.415556
3098.343262	20.516319
3097.733887	20.513195
3097.124512	20.510069
3096.514893	20.506945
3095.905273	8.201528
3095.295410	12.300417
3094.685791	8.199028
3094.075684	20.494448
3093.465820	24.589588
3092.855713	8.195280
3092.245361	12.291047
3091.635254	8.192782
3091.024658	16.383068
3090.414307	0.000000
3089.803711	4.094518
3089.193115	16.375576
3088.582275	8.186540
3087.971436	16.370583
3087.360596	28.644152
3086.749512	8.182796
3086.138428	24.544643
3085.527100	-4.090150
3084.915771	16.358105
3084.304443	0.000000
3083.692871	-4.088279
3083.081299	-4.087656
3082.469482	16.348127
3081.857910	4.086409
3081.245850	28.600496
3080.634033	0.000000
3080.021973	20.422693
3079.409668	16.335661
3078.797607	16.333170
3078.185059	4.082669
3077.572754	20.410231
3076.960205	24.488541
3076.347656	-4.080801
3075.734863	24.481066
3075.122070	4.079555
3074.509033	24.473595
3073.895996	20.391548
3073.282959	4.077687
3072.669922	28.539454
3072.056641	12.229327
3071.443115	4.075820
3070.829834	12.225594
3070.216064	20.372879
3069.602539	20.369768
3068.988770	16.293325
3068.375000	28.508966
3067.760986	8.144175
3067.146973	12.214396
3066.532715	0.000000
3065.918701	12.210666
3065.304199	-8.139201
3064.689941	4.068979
3064.075439	24.410143
3063.460693	8.135471
3062.846191	24.402685
3062.231445	8.132986
3061.616455	32.526974
3061.001465	8.130501
3060.386475	16.258516
3059.771240	16.256033
3059.156006	12.190162
3058.540771	12.188298
3057.925293	20.310726
3057.309814	20.307623
3056.694092	24.365421
3056.078369	8.120565
3055.462646	4.059662
3054.846680	16.236166
3054.230713	12.175263
3053.614502	8.115602
3052.998291	12.171541
3052.382080	0.000000
3051.765625	8.111879
3051.149170	36.497875
3050.532715	8.109399
3049.916016	20.270397
3049.299316	0.000000
3048.682373	36.475555
3048.065430	8.104439
3047.448486	8.103200
3046.831299	-4.050980
3046.214111	32.402882
3045.596680	8.099482
3044.979248	20.245605
3044.361816	16.194008
3043.744141	0.000000
3043.126465	16.189053
3042.508545	-4.046644
3041.890869	16.184097
3041.272705	12.136216
3040.654785	4.044786
3040.036621	16.176668
3039.418213	32.348385
3038.799805	24.257576
3038.181396	16.169241
3037.562988	16.166767
3036.944336	16.164291
3036.325439	20.202272
3035.706543	36.358521
3035.087646	24.235304
3034.468750	36.347389
3033.849609	24.227882
3033.230469	16.149448
3032.611084	20.183720
3031.991699	4.036126
3031.372070	20.177538
3030.752441	24.209337
3030.132813	20.171358
3029.513184	24.201921
3028.893066	16.132143
3028.273193	16.129671
3027.653076	32.254402
3027.032959	8.062365
3026.412598	12.091695
3025.792480	20.149736
3025.171875	-4.029330
3024.551270	32.229698
3023.930664	16.112379
3023.310059	12.082433
3022.689209	16.107441
3022.068115	36.236191
3021.447266	32.205009
3020.826172	12.075027
3020.204834	20.121962
3019.583496	12.071326
3018.962158	20.115791
3018.340576	40.225418
3017.718994	36.197323
3017.097412	32.170467
3016.475586	24.124151
3015.853760	12.060225
3015.231689	12.058376
3014.609619	8.037684
3013.987549	16.072905
3013.365234	24.105658
3012.742920	4.016994
3012.120361	0.000000
3011.497803	32.126091
3010.875244	32.121162
3010.252441	8.029058
3009.629639	28.097395
3009.006836	12.039893
3008.383789	16.050728
3007.760498	48.144794
3007.137451	24.068705
3006.514160	24.065010
3005.890625	16.040878
3005.267090	32.076832
3004.643555	48.107864
3004.019775	24.050241
3003.395996	32.062065
3002.772217	44.078575
3002.148193	28.045696
3001.524170	12.017738
3000.899902	24.031788
3000.275635	24.028097
2999.651367	8.008137
2999.026855	20.017267
2998.402344	20.014193
2997.777588	40.022240
2997.152832	40.016094
2996.528076	20.004974
2995.903076	36.003422
2995.278076	35.997894
2994.653076	11.997455
2994.027832	11.995612
2993.402344	0.000000
2992.777100	35.975780
2992.151367	19.983475
2991.525879	39.960808
2990.900146	31.963736
2990.274414	11.984559
2989.648438	31.953913
2989.022461	19.968126
2988.396240	31.944094
2987.770264	23.954388
2987.143799	43.909630
2986.517578	35.920540
2985.891113	67.839478
2985.264404	79.798882
2984.637695	39.893307
2984.010986	43.875893
2983.384033	55.833462
2982.757080	43.862404
2982.130127	35.881905
2981.502930	47.835182
2980.875732	59.784782
2980.248291	63.760632
2979.620850	63.750824
2978.993408	63.741020
2978.365723	75.680824
2977.738037	75.669182
2977.110107	75.657547
2976.482178	47.776363
2975.854248	51.749763
2975.226074	95.523331
2974.597900	95.508636
2973.969482	87.536110
2973.341309	91.500946
2972.712646	95.464554
2972.083984	67.610321
2971.455322	127.246910
2970.826660	127.227325
2970.197754	147.083954
2969.568604	147.061325
2968.939697	162.934753
2968.310547	127.149017
2967.681152	154.939011
2967.051758	174.776077
2966.422363	174.749176
2965.792725	194.577087
2965.163086	174.695374
2964.533203	242.154037
2963.903564	194.487228
2963.273438	218.268372
2962.643311	226.170578
2962.013184	238.037628
2961.383057	241.967651
2960.752686	269.692902
2960.122314	273.616821
2959.491699	285.469208
2958.861084	218.033173
2958.230225	301.235809
2957.599609	277.411285
2956.968506	289.255768
2956.337646	257.516815
2955.706299	261.438354
2955.075195	281.200928
2954.443848	296.997467
2953.812500	265.276855
2953.180908	292.947205
2952.549316	332.483429
2951.917725	340.347229
2951.285889	352.165527
2950.653809	363.980164
2950.021973	340.189880
2949.389893	375.733215
2948.757568	359.857391
2948.125244	371.663513
2947.492920	359.746460
2946.860352	308.306549
2946.227783	292.450867
2945.595215	268.697205
2944.962402	284.459045
2944.329590	256.763702
2943.696533	252.774506
2943.063477	225.092575
2942.430420	252.696533
2941.797119	221.075363
2941.163574	217.094101
2940.530273	181.541611
2939.896729	197.297394
2939.262939	189.376282
2938.629150	232.739090
2937.995361	185.373718
2937.361328	157.740524
2936.727295	189.259430
2936.093262	201.057114
2935.458984	220.734528
2934.824707	224.641541
2934.190186	204.904510
2933.555664	220.632339
2932.921143	259.990845
2932.286377	267.828003
2931.651367	283.538818
2931.016602	248.058167
2930.381592	311.009033
2929.746338	314.897247
2929.111084	350.269104
2928.475830	354.150024
2927.840332	358.029724
2927.204834	381.577148
2926.569336	432.649536
2925.933594	420.785004
2925.297607	475.767487
2924.661865	444.243164
2924.025879	444.174561
2923.389648	444.105927
2922.753418	412.601074
2922.117188	436.110901
2921.480713	432.115204
2920.844238	451.687012
2920.207764	459.471436
2919.571045	459.400421
2918.934082	431.848206
2918.297363	482.810181
2917.660156	459.187500
2917.023193	447.344299
2916.385986	447.275177
2915.748779	455.051758
2915.111328	427.525665
2914.473877	431.381226
2913.836182	458.761810
2913.198486	443.009155
2912.560791	442.940674
2911.922852	423.276062
2911.284912	481.989899
2910.646729	474.079346
2910.008545	434.831970
2909.370361	470.015930
2908.731934	524.769958
2908.093506	567.760254
2907.455078	552.012512
2906.816406	583.242188
2906.177490	641.858521
2905.538574	641.759216
2904.899658	684.698120
2904.260498	598.529175
2903.621338	657.106873
2902.982178	684.380432
2902.342773	688.184631
2901.703369	731.083069
2901.063721	727.060974
2900.424072	695.681885
2899.784424	734.651428
2899.144531	703.280823
2898.504639	664.106873
2897.864502	679.627686
2897.224365	659.995972
2896.583984	632.560974
2895.943848	601.230286
2895.303223	538.681396
2894.662842	585.432617
2894.021973	612.657898
2893.381348	647.678162
2892.740479	624.171448
2892.099609	639.676636
2891.458496	627.877991
2890.817383	666.773376
2890.176025	690.062012
2889.534668	752.323975
2888.893311	724.925293
2888.251709	740.400391
2887.610107	779.248108
2886.968262	825.875061
2886.326416	763.426575
2885.684570	806.147034
2885.042480	798.234436
2884.400391	918.800720
2883.758057	813.557617
2883.115723	844.567688
2882.473389	949.504944
2881.830811	949.357788
2881.188232	863.626099
2880.545410	937.394714
2879.902588	956.694458
2879.259766	933.215759
2878.616699	843.651794
2877.973633	882.392944
2877.330322	804.524292
2876.687012	784.969666
2876.043457	738.223328
2875.399902	788.611023
2874.756348	695.268372
2874.112549	733.996399
2873.468750	683.403870
2872.824707	768.710083
2872.180664	679.310120
2871.536621	636.511902
2870.892334	655.815979
2870.248047	729.433655
2869.603760	690.526855
2868.958984	663.268372
2868.314453	736.850525
2867.669678	717.348389
2867.024902	713.360168
2866.379883	686.114990
2865.734863	767.399353
2865.089844	744.029358
2864.444580	751.662964
2863.799316	701.184937
2863.153809	732.062927
2862.508301	666.112610
2861.862549	580.821960
2861.216797	611.704163
2860.571045	545.803162
2859.925049	468.311554
2859.279053	429.541443
2858.632813	386.914185
2857.986572	410.065338
2857.340332	363.586395
2856.693848	320.989197
2856.047363	317.072601
2855.400635	282.228119
2854.753906	274.453217
2854.107178	255.085892
2853.460205	247.317596
2852.813232	224.096756
2852.166016	254.967041
2851.518799	227.889679
2850.871338	216.268463
2850.223877	250.986893
2849.576416	266.390839
2848.928711	227.748077
2848.281006	247.010376
2847.633301	266.266693
2846.985352	289.375336
2846.337158	262.326202
2845.688965	316.285370
2845.040771	335.518890
2844.392578	393.305847
2843.743896	404.810730
2843.095459	412.457275
2842.446777	431.663849
2841.798096	481.692810
2841.149170	439.235535
2840.500244	477.690674
2839.851074	516.133850
2839.202148	535.309326
2838.552734	550.628296
2837.903320	558.242554
2837.253906	565.854431
2836.604492	569.615173
2835.954834	515.652405
2835.304932	527.114868
2834.655029	507.798096
2834.005127	453.870117
2833.354980	442.262238
2832.704834	365.290222
2832.054688	365.233368
2831.404297	365.176544
2830.753906	280.565674
2830.103271	288.207550
2829.452637	253.583191
2828.801758	222.811142
2828.150879	207.412582
2827.500000	168.976532
2826.848877	176.629791
2826.197754	122.853775
2825.546387	142.027557
2824.895020	99.787613
2824.243408	95.934692
2823.591797	107.430122
2822.940186	95.904816
2822.288330	92.054291
2821.636475	92.039955
2820.984619	76.688019
2820.332520	103.512703
2819.680176	61.331306
2819.028076	72.819588
2818.375488	91.968307
2817.723145	88.122566
2817.070557	68.954742
2816.417725	57.453335
2815.764893	88.081390
2815.112061	65.093491
2814.458984	45.941189
2813.805908	68.901047
2813.152832	45.926872
2812.499512	57.399643
2811.845947	68.868835
2811.192383	68.858109
2810.538818	72.672226
2809.885010	68.836639
2809.231201	45.883942
2808.577393	76.461319
2807.923340	68.804459
2807.269287	45.862488
2806.614990	57.319172
2805.960693	38.206821
2805.306152	42.020954
2804.651611	64.931343
2803.997070	61.102325
2803.342285	30.546398
2802.687500	26.723930
2802.032471	45.805305
2801.377441	53.431190
2800.722412	45.791019
2800.067139	38.153229
2799.411621	30.517822
2798.756348	38.141327
2798.100586	34.321838
2797.445068	34.316486
2796.789307	53.372871
2796.133301	41.929283
2795.477539	57.167374
2794.821289	34.295071
2794.165283	34.289719
2793.509033	53.331238
2792.852539	64.749252
2792.196045	45.698223
2791.539551	7.615181
2790.882813	34.262966
2790.226074	38.064022
2789.569092	57.087116
2788.912109	22.831282
2788.255127	38.046196
2787.597900	30.432205
2786.940430	3.803432
2786.283203	34.225540
2785.625488	34.220192
2784.968018	34.214851
2784.310303	60.816898
2783.652588	26.603237
2782.994629	41.798557
2782.336426	49.390579
2781.678467	34.188137
2781.020264	60.769413
2780.361816	41.772446
2779.703369	56.953526
2779.044922	30.370468
2778.386230	22.774292
2777.727539	11.385366
2777.068604	15.178117
2776.409668	18.969681
2775.750732	49.313461
2775.091553	60.684006
2774.432373	26.545103
2773.772949	11.374694
2773.113525	49.282635
2772.453857	30.323036
2771.794189	49.267227
2771.134521	22.735167
2770.474609	15.154408
2769.814697	26.516066
2769.154541	18.937086
2768.494385	30.294600
2767.833984	37.862328
2767.173584	22.713844
2766.513184	34.065437
2765.852539	37.844566
2765.191895	30.270916
2764.531006	34.049454
2763.870117	30.261446
2763.209229	37.820889
2762.548096	52.940964
2761.886719	37.809055
2761.225586	45.363770
2760.563965	30.237780
2759.902588	30.233049
2759.240967	37.785397
2758.579102	37.779484
2757.917236	41.550926
2757.255371	33.990894
2756.593262	41.537922
2755.931152	33.980251
2755.269043	45.299911
2754.606689	52.841621
2753.944092	33.964294
2753.281494	67.917953
2752.618896	41.498920
2751.956055	52.808537
2751.293213	60.343163
2750.630371	56.562855
2749.967285	41.472931
2749.303955	67.854172
2748.640625	52.767197
2747.977295	26.379467
2747.313721	45.214859
2746.650146	22.603888
2745.986572	56.500870
2745.322754	48.959747
2744.658691	56.483166
2743.994873	60.239269
2743.330566	41.408009
2742.666504	60.220394
2742.002197	60.210957
2741.337646	79.014496
2740.673096	60.192085
2740.008545	75.228317
2739.343750	48.890739
2738.678955	71.444496
2738.013916	78.952591
2737.348877	60.144924
2736.683594	52.618561
2736.018311	48.852432
2735.353027	97.689545
2734.687500	63.863914
2734.021973	82.634460
2733.356201	90.132545
2732.690430	90.118416
2732.024658	82.595589
2731.358643	78.828880
2730.692383	97.582352
2730.026367	71.298996
2729.359863	112.559700
2728.693604	86.282234
2728.027100	105.022766
2727.360352	112.506737
2726.693604	138.736542
2726.026855	112.471436
2725.359863	97.459946
2724.692871	134.923370
2724.025635	119.913063
2723.358398	131.134323
2722.691162	153.590393
2722.023682	138.584198
2721.355957	127.327660
2720.688477	164.751099
2720.020508	123.543930
2719.352783	131.010880
2718.684814	130.990311
2718.016602	119.743759
2717.348389	104.759338
2716.680176	104.742889
2716.011719	138.388519
2715.343262	112.189278
2714.674561	115.910721
2714.005859	104.677109
2713.337158	97.184906
2712.668213	97.169640
2711.999023	82.207550
2711.329834	104.611359
2710.660645	108.330452
2709.991455	119.518272
2709.321777	93.358978
2708.652344	85.876770
2707.982666	93.329643
2707.312988	85.849777
2706.643066	82.104279
2705.972900	89.554222
2705.302979	89.540154
2704.632813	55.953800
2703.962402	55.945004
2703.291992	74.581612
2702.621582	85.755371
2701.950928	70.830261
2701.280273	59.637157
2700.609375	78.261459
2699.938477	55.892254
2699.267334	37.255642
2698.596191	52.149700
2697.925049	52.141499
2697.253662	55.857105
2696.582031	59.571541
2695.910645	63.284809
2695.239014	52.108704
2694.567139	55.821972
2693.895264	40.929672
2693.223145	52.084118
2692.551270	44.636505
2691.878906	59.505978
2691.206543	40.903923
2690.534180	40.897484
2689.861816	55.760521
2689.189209	48.318180
2688.516357	66.891571
2687.843506	52.018589
2687.170654	52.010399
2686.497559	26.001106
2685.824463	51.994030
2685.151123	48.272568
2684.477783	44.552280
2683.804199	70.530006
2683.130615	48.249775
2682.457031	63.085922
2681.783203	48.234581
2681.109375	25.968376
2680.435303	29.673471
2679.761230	37.085999
2679.086914	33.372143
2678.412598	51.904045
2677.738281	63.016411
2677.063721	37.062637
2676.389160	62.996559
2675.714355	62.986637
2675.039551	55.567688
2674.364502	59.262863
2673.689453	51.846836
2673.014404	33.324856
2672.339111	40.723961
2671.663574	40.717545
2670.988037	44.412140
2670.312500	55.506424
2669.636719	55.497677
2668.960938	44.391144
2668.285156	36.986790
2667.609131	59.169533
2666.932861	55.462692
2666.256592	44.363159
2665.580322	44.356163
2664.903809	62.827991
2664.227295	59.122902
2663.550781	51.724384
2662.874023	66.492287
2662.197021	62.788372
2661.520020	40.621361
2660.843018	44.307224
2660.165771	73.833725
2659.488525	51.675457
2658.811035	59.048347
2658.133545	55.349091
2657.455811	59.029716
2656.778076	70.086731
2656.100342	73.763863
2655.422363	40.563725
2654.744385	62.679501
2654.066162	66.356056
2653.387939	62.659718
2652.709473	51.593979
2652.031006	47.901131
2651.352539	55.261814
2650.673828	44.202473
2649.994873	58.927326
2649.316162	95.741791
2648.636963	58.908722
2647.958008	47.855778
2647.278809	62.570755
2646.599365	47.840668
2645.919922	44.153645
2645.240479	55.183338
2644.560791	58.852932
2643.880859	58.843639
2643.201172	62.511490
2642.520996	47.795353
2641.841064	62.491745
2641.160889	62.481873
2640.480469	40.423061
2639.800049	25.719702
2639.119629	25.715637
2638.438965	29.384657
2637.758301	22.035009
2637.077393	44.063057
2636.396484	44.056095
2635.715332	66.073700
2635.034180	29.361446
2634.353027	3.669601
2633.671631	36.690208
2632.989990	44.021290
2632.308350	36.678608
2631.626709	55.009216
2630.944824	25.666908
2630.262939	36.661213
2629.581055	40.320961
2628.898926	32.984661
2628.216553	47.636974
2627.534180	18.319016
