#Wave		#Intensity
3200.600830	4.209852
3200.007080	8.419704
3199.413086	21.046080
3198.819092	4.208580
3198.224854	0.000000
3197.630615	37.865768
3197.036377	8.413343
3196.442139	42.060356
3195.847656	25.232399
3195.252930	-29.433350
3194.658447	-12.612386
3194.063721	21.017464
3193.468750	50.434288
3192.873779	0.000000
3192.278809	21.007931
3191.683838	-8.401901
3191.088623	8.400631
3190.493164	20.998402
3189.897949	41.990452
3189.302490	16.793640
3188.706787	25.186649
3188.111328	0.000000
3187.515381	0.000000
3186.919678	16.783482
3186.323730	8.390471
3185.727783	41.946007
3185.131592	12.581898
3184.535400	8.386662
3183.939209	12.578091
3183.342773	33.536499
3182.746338	16.765713
3182.149902	-8.381587
3181.553223	20.950798
3180.956543	33.516201
3180.359619	12.566673
3179.762695	25.129543
3179.165771	16.750492
3178.568604	0.000000
3177.971436	46.049908
3177.374268	-8.371443
3176.776855	12.555264
3176.179443	8.368908
3175.581787	-4.183821
3174.984131	0.000000
3174.386475	33.460430
3173.788574	25.091520
3173.190674	12.543860
3172.592773	20.903269
3171.994629	41.800205
3171.396484	33.435097
3170.798340	20.893770
3170.199951	25.068727
3169.601563	37.597393
3169.002930	29.237988
3168.404297	16.704891
3167.805664	-4.175590
3167.206787	0.000000
3166.607910	-4.174325
3166.008789	12.521076
3165.409912	41.730595
3164.810547	45.896698
3164.211426	41.717949
3163.612061	0.000000
3163.012695	16.682121
3162.413086	41.698982
3161.813477	16.677065
3161.213623	20.843170
3160.614014	4.168002
3160.013916	0.000000
3159.414063	-12.500216
3158.813965	4.166107
3158.213867	20.827375
3157.613525	-4.164844
3157.013184	41.642120
3156.412598	0.000000
3155.812256	20.814745
3155.211426	20.811588
3154.610840	24.970118
3154.010010	8.322110
3153.409180	41.604240
3152.808105	0.000000
3152.207031	-4.159162
3151.605957	24.951185
3151.004639	16.631599
3150.403320	12.471807
3149.801758	12.469915
3149.200195	16.624031
3148.598633	-4.155377
3147.996826	24.928480
3147.395020	4.154116
3146.793213	4.153486
3146.191162	-16.611422
3145.589111	12.456676
3144.986816	58.122326
3144.384766	16.603859
3143.782227	24.902008
3143.179932	29.047932
3142.577393	20.745373
3141.974609	29.039112
3141.371826	24.886889
3140.769043	12.441555
3140.166260	-4.146555
3139.563232	41.459255
3138.960205	0.000000
3138.356934	37.301998
3137.753662	0.000000
3137.150391	24.860447
3136.546875	0.000000
3135.943359	16.568598
3135.339600	49.698242
3134.735840	24.845346
3134.132080	4.140262
3133.528076	-16.558531
3132.924072	8.278008
3132.320068	-41.383751
3131.715820	28.964224
3131.111572	33.096943
3130.507080	-4.136489
3129.902588	-8.271721
3129.298096	16.540928
3128.693604	49.615242
3128.088867	8.267950
3127.483887	4.133347
3126.878906	0.000000
3126.273926	24.792542
3125.668945	41.314621
3125.063721	-4.130834
3124.458252	4.130206
3123.853027	-4.129578
3123.247559	8.257900
3122.641846	8.256645
3122.036133	16.510778
3121.430420	24.762402
3120.824707	16.505758
3120.218750	-4.125812
3119.612549	-4.125185
3119.006592	24.747341
3118.400391	-4.123930
3117.793945	-16.493210
3117.187500	4.122675
3116.581055	0.000000
3115.974609	-8.242842
3115.367920	12.362382
3114.760986	16.480667
3114.154297	-8.239080
3113.547363	16.475653
3112.940186	-16.473146
3112.333008	24.705959
3111.725830	-8.234066
3111.118408	20.582033
3110.510986	20.578901
3109.903564	12.345461
3109.295898	4.114527
3108.688232	0.000000
3108.080566	-8.226550
3107.472656	4.112648
3106.864746	28.784159
3106.256592	-24.668379
3105.648438	32.886166
3105.040039	8.220289
3104.431885	4.109519
3103.823486	0.000000
3103.214844	12.324802
3102.606201	36.968777
3101.997559	12.321048
3101.388672	0.000000
3100.779785	12.317295
3100.170898	41.051399
3099.561768	24.627087
3098.952637	36.935001
3098.343262	0.000000
3097.733887	20.513195
3097.124512	4.102014
3096.514893	8.202778
3095.905273	28.705347
3095.295410	8.200278
3094.685791	24.597086
3094.075684	12.296668
3093.465820	24.589588
3092.855713	12.292921
3092.245361	-12.291047
3091.635254	8.192782
3091.024658	0.000000
3090.414307	12.285427
3089.803711	0.000000
3089.193115	16.375576
3088.582275	16.373079
3087.971436	4.092646
3087.360596	0.000000
3086.749512	-12.274193
3086.138428	8.181548
3085.527100	16.360600
3084.915771	20.447632
3084.304443	20.444513
3083.692871	0.000000
3083.081299	0.000000
3082.469482	-12.261096
3081.857910	4.086409
3081.245850	12.257356
3080.634033	12.255486
3080.021973	20.422693
3079.409668	36.755238
3078.797607	12.249877
3078.185059	24.496016
3077.572754	16.328186
3076.960205	77.547043
3076.347656	16.323202
3075.734863	28.561245
3075.122070	-4.079555
3074.509033	20.394661
3073.895996	44.861408
3073.282959	16.310749
3072.669922	4.077065
3072.056641	20.382212
3071.443115	20.379101
3070.829834	12.225594
3070.216064	0.000000
3069.602539	20.369768
3068.988770	0.000000
3068.375000	-8.145419
3067.760986	4.072087
3067.146973	24.428793
3066.532715	8.141687
3065.918701	16.280888
3065.304199	24.417603
3064.689941	12.206936
3064.075439	24.410143
3063.460693	12.203207
3062.846191	16.268457
3062.231445	16.265972
3061.616455	16.263487
3061.001465	-12.195751
3060.386475	8.129258
3059.771240	8.128016
3059.156006	36.570484
3058.540771	36.564896
3057.925293	20.310726
3057.309814	12.184573
3056.694092	4.060904
3056.078369	-8.120565
3055.462646	0.000000
3054.846680	20.295208
3054.230713	32.467369
3053.614502	-4.057801
3052.998291	4.057180
3052.382080	0.000000
3051.765625	24.335638
3051.149170	-12.165958
3050.532715	28.382896
3049.916016	-4.054080
3049.299316	4.053459
3048.682373	-12.158519
3048.065430	16.208878
3047.448486	12.154799
3046.831299	56.713722
3046.214111	36.453243
3045.596680	16.198963
3044.979248	20.245605
3044.361816	16.194008
3043.744141	-8.095764
3043.126465	32.378105
3042.508545	4.046644
3041.890869	12.138073
3041.272705	-4.045405
3040.654785	44.492649
3040.036621	16.176668
3039.418213	16.174192
3038.799805	8.085858
3038.181396	48.507725
3037.562988	8.083384
3036.944336	20.205364
3036.325439	-24.242725
3035.706543	24.239014
3035.087646	32.313740
3034.468750	28.270191
3033.849609	28.265863
3033.230469	-16.149448
3032.611084	44.404182
3031.991699	36.325130
3031.372070	-12.106523
3030.752441	16.139557
3030.132813	20.171358
3029.513184	4.033654
3028.893066	0.000000
3028.273193	12.097254
3027.653076	-4.031800
3027.032959	-4.031182
3026.412598	20.152824
3025.792480	4.029947
3025.171875	16.117319
3024.551270	16.114849
3023.930664	24.168570
3023.310059	12.082433
3022.689209	24.161163
3022.068115	8.052486
3021.447266	16.102505
3020.826172	20.125046
3020.204834	16.097569
3019.583496	20.118876
3018.962158	20.115791
3018.340576	36.202873
3017.718994	16.087700
3017.097412	4.021308
3016.475586	12.062076
3015.853760	40.200752
3015.231689	16.077835
3014.609619	20.094212
3013.987549	20.091129
3013.365234	20.088049
3012.742920	32.135948
3012.120361	-4.016377
3011.497803	8.031523
3010.875244	44.166599
3010.252441	16.058117
3009.629639	28.097395
3009.006836	24.079786
3008.383789	12.038046
3007.760498	4.012066
3007.137451	20.057253
3006.514160	16.043341
3005.890625	0.000000
3005.267090	4.009604
3004.643555	12.026966
3004.019775	28.058615
3003.395996	32.062065
3002.772217	52.092861
3002.148193	20.032640
3001.524170	28.041389
3000.899902	0.000000
3000.275635	32.037464
2999.651367	-8.008137
2999.026855	36.031082
2998.402344	60.042580
2997.777588	16.008896
2997.152832	16.006437
2996.528076	0.000000
2995.903076	40.003803
2995.278076	15.999063
2994.653076	0.000000
2994.027832	19.992687
2993.402344	35.981308
2992.777100	19.986546
2992.151367	27.976864
2991.525879	23.976484
2990.900146	39.954670
2990.274414	35.953678
2989.648438	55.919350
2989.022461	31.949003
2988.396240	23.958071
2987.770264	39.923981
2987.143799	23.950706
2986.517578	47.894051
2985.891113	19.952787
2985.264404	39.899441
2984.637695	43.882641
2984.010986	31.909740
2983.384033	39.881042
2982.757080	39.874912
2982.130127	35.881905
2981.502930	63.780243
2980.875732	11.956957
2980.248291	51.805511
2979.620850	51.797546
2978.993408	95.611534
2978.365723	79.664024
2977.738037	51.773651
2977.110107	35.837784
2976.482178	63.701817
2975.854248	71.653519
2975.226074	59.702080
2974.597900	63.672421
2973.969482	79.578285
2973.341309	79.566040
2972.712646	127.286072
2972.083984	95.449867
2971.455322	99.411644
2970.826660	135.179031
2970.197754	111.306778
2969.568604	174.883728
2968.939697	127.168594
2968.310547	139.069244
2967.681152	123.156654
2967.051758	127.109879
2966.422363	186.663895
2965.792725	166.780350
2965.163086	186.606430
2964.533203	226.275085
2963.903564	182.579849
2963.273438	206.362823
2962.643311	162.684097
2962.013184	226.135742
2961.383057	206.267502
2960.752686	214.167877
2960.122314	229.996735
2959.491699	265.644958
2958.861084	269.568298
2958.230225	249.708618
2957.599609	273.448273
2956.968506	202.082794
2956.337646	237.707840
2955.706299	241.632401
2955.075195	213.871140
2954.443848	261.357788
2953.812500	281.114288
2953.180908	225.648529
2952.549316	277.069519
2951.917725	280.984344
2951.285889	257.199554
2950.653809	225.509445
2950.021973	253.164566
2949.389893	308.496765
2948.757568	245.177567
2948.125244	249.093628
2947.492920	237.195465
2946.860352	217.395645
2946.227783	213.410095
2945.595215	244.988617
2944.962402	197.541000
2944.329590	197.510544
2943.696533	185.631271
2943.063477	189.551636
2942.430420	150.038574
2941.797119	126.328781
2941.163574	153.939453
2940.530273	153.915710
2939.896729	134.162231
2939.262939	157.813568
2938.629150	157.789215
2937.995361	110.435410
2937.361328	165.627548
2936.727295	122.230049
2936.093262	145.864960
2935.458984	149.784134
2934.824707	157.643188
2934.190186	126.095085
2933.555664	165.474258
2932.921143	185.144989
2932.286377	200.871002
2931.651367	161.459595
2931.016602	181.121826
2930.381592	208.651642
2929.746338	196.810776
2929.111084	208.587219
2928.475830	236.100006
2927.840332	212.457199
2927.204834	239.960876
2926.569336	259.589722
2925.933594	322.470734
2925.297607	239.849731
2924.661865	338.096558
2924.025879	275.152374
2923.389648	271.179718
2922.753418	310.433197
2922.117188	267.167023
2921.480713	290.695679
2920.844238	322.072479
2920.207764	369.147980
2919.571045	325.899445
2918.934082	298.367859
2918.297363	290.471161
2917.660156	302.200317
2917.023193	298.229553
2916.385986	313.877319
2915.748779	302.060211
2915.111328	282.402252
2914.473877	305.888489
2913.836182	309.762268
2913.198486	317.555237
2912.560791	293.987183
2911.922852	278.264832
2911.284912	321.326599
2910.646729	297.768829
2910.008545	278.135773
2909.370361	321.177551
2908.731934	336.792664
2908.093506	317.162628
2907.455078	391.498260
2906.816406	375.780182
2906.177490	442.256195
2905.538574	399.142944
2904.899658	481.244965
2904.260498	430.315094
2903.621338	418.514496
2902.982178	461.467926
2902.342773	422.295135
2901.703369	422.229797
2901.063721	469.071625
2900.424072	418.190796
2899.784424	453.295563
2899.144531	386.804443
2898.504639	457.061768
2897.864502	386.684723
2897.224365	386.624878
2896.583984	390.469727
2895.943848	390.409271
2895.303223	405.962799
2894.662842	366.871094
2894.021973	374.618866
2893.381348	358.954163
2892.740479	374.502869
2892.099609	393.947205
2891.458496	448.484283
2890.817383	421.120026
2890.176025	460.041351
2889.534668	424.887634
2888.893311	444.309052
2888.251709	510.486603
2887.610107	525.992493
2886.968262	514.224060
2886.326416	490.774231
2885.684570	498.487030
2885.042480	541.241882
2884.400391	576.197083
2883.758057	615.033997
2883.115723	583.802551
2882.473389	552.580750
2881.830811	618.638916
2881.188232	626.323425
2880.545410	567.882263
2879.902588	626.129272
2879.259766	567.706238
2878.616699	590.945007
2877.973633	664.710083
2877.330322	606.308167
2876.687012	571.240295
2876.043457	575.037109
2875.399902	543.869690
2874.756348	508.827698
2874.112549	485.447327
2873.468750	477.606110
2872.824707	485.296783
2872.180664	489.103271
2871.536621	442.453400
2870.892334	512.234985
2870.248047	496.635651
2869.603760	438.368164
2868.958984	488.724060
2868.314453	453.744781
2867.669678	527.348022
2867.024902	523.389221
2866.379883	476.791748
2865.734863	468.966248
2865.089844	523.145630
2864.444580	511.440796
2863.799316	495.865601
2863.153809	484.168610
2862.508301	441.493225
2861.862549	422.063965
2861.216797	418.126923
2860.571045	375.481598
2859.925049	332.849548
2859.279053	290.230682
2858.632813	228.279373
2857.986572	239.849548
2857.340332	263.019958
2856.693848	177.897629
2856.047363	166.269791
2855.400635	158.511688
2854.753906	201.007980
2854.107178	173.922195
2853.460205	154.573502
2852.813232	123.639595
2852.166016	139.072937
2851.518799	104.288498
2850.871338	158.339417
2850.223877	139.008133
2849.576416	146.708008
2848.928711	146.685211
2848.281006	158.241028
2847.633301	135.062805
2846.985352	185.200211
2846.337158	185.171432
2845.688965	219.856903
2845.040771	196.683487
2844.392578	204.364792
2843.743896	239.031097
2843.095459	246.703415
2842.446777	269.789917
2841.798096	265.894440
2841.149170	339.059021
2840.500244	281.221130
2839.851074	319.694855
2839.202148	300.389404
2838.552734	385.054749
2837.903320	350.345306
2837.253906	346.441467
2836.604492	357.933838
2835.954834	342.485565
2835.304932	296.261658
2834.655029	346.225983
2834.005127	326.940338
2833.354980	315.352203
2832.704834	280.696686
2832.054688	238.362839
2831.404297	249.857635
2830.753906	249.818756
2830.103271	172.924545
2829.452637	172.897629
2828.801758	119.088715
2828.150879	149.797974
2827.500000	122.892029
2826.848877	92.154671
2826.197754	130.532135
2825.546387	134.350388
2824.895020	103.625595
2824.243408	84.422531
2823.591797	115.103706
2822.940186	72.887665
2822.288330	61.369526
2821.636475	69.029968
2820.984619	61.350414
2820.332520	34.504234
2819.680176	22.999241
2819.028076	72.819588
2818.375488	53.648178
2817.723145	57.471237
2817.070557	72.785561
2816.417725	84.264893
2815.764893	45.955505
2815.112061	45.948345
2814.458984	38.284325
2813.805908	61.245373
2813.152832	45.926872
2812.499512	57.399643
2811.845947	68.868835
2811.192383	34.429054
2810.538818	99.446205
2809.885010	68.836639
2809.231201	57.354927
2808.577393	30.584526
2807.923340	49.692108
2807.269287	42.040615
2806.614990	53.497894
2805.960693	49.668869
2805.306152	0.000000
2804.651611	53.472874
2803.997070	53.464535
2803.342285	15.273199
2802.687500	53.447861
2802.032471	30.536871
2801.377441	49.614677
2800.722412	26.711428
2800.067139	45.783878
2799.411621	41.962006
2798.756348	7.628265
2798.100586	38.135376
2797.445068	45.755314
2796.789307	53.372871
2796.133301	45.741035
2795.477539	26.678108
2794.821289	30.484509
2794.165283	34.289719
2793.509033	19.046871
2792.852539	26.661457
2792.196045	49.506409
2791.539551	38.075909
2790.882813	11.420989
2790.226074	22.838413
2789.569092	34.252270
2788.912109	64.688629
2788.255127	26.632338
2787.597900	30.432205
2786.940430	0.000000
2786.283203	41.831215
2785.625488	38.022438
2784.968018	45.619801
2784.310303	53.214787
2783.652588	41.805088
2782.994629	15.199475
2782.336426	22.795652
2781.678467	30.389456
2781.020264	41.778973
2780.361816	30.379961
2779.703369	15.187607
2779.044922	11.388926
2778.386230	37.957153
2777.727539	34.156101
2777.068604	22.767176
2776.409668	11.381808
2775.750732	37.933434
2775.091553	26.549252
2774.432373	45.505890
2773.772949	34.124084
2773.113525	53.073608
2772.453857	15.161518
2771.794189	18.948935
2771.134521	34.102749
2770.474609	34.097416
2769.814697	-11.364029
2769.154541	37.874172
2768.494385	34.081425
2767.833984	37.862328
2767.173584	41.642048
2766.513184	0.000000
2765.852539	-7.568913
2765.191895	34.054779
2764.531006	37.832726
2763.870117	60.522892
2763.209229	49.167156
2762.548096	41.596470
2761.886719	26.466339
2761.225586	41.583454
2760.563965	22.678335
2759.902588	41.570442
2759.240967	41.563938
2758.579102	7.555897
2757.917236	11.332071
2757.255371	15.107063
2756.593262	56.642620
2755.931152	45.307003
2755.269043	33.974934
2754.606689	67.939232
2753.944092	67.928589
2753.281494	60.371517
2752.618896	33.953663
2751.956055	30.176306
2751.293213	45.257370
2750.630371	26.396000
2749.967285	37.702663
2749.303955	45.236111
2748.640625	33.921772
2747.977295	52.758934
2747.313721	79.126007
2746.650146	18.836573
2745.986572	60.267593
2745.322754	64.024284
2744.658691	45.186531
2743.994873	48.944408
2743.330566	63.994194
2742.666504	60.220394
2742.002197	41.395031
2741.337646	63.964115
2740.673096	45.144066
2740.008545	56.421234
2739.343750	60.173218
2738.678955	30.081894
2738.013916	60.154354
2737.348877	26.313404
2736.683594	60.135498
2736.018311	56.368191
2735.353027	60.116642
2734.687500	71.377319
2734.021973	67.610016
2733.356201	48.821796
2732.690430	63.833878
2732.024658	60.069519
2731.358643	97.597664
2730.692383	90.076019
2730.026367	97.567047
2729.359863	97.551743
2728.693604	67.525230
2728.027100	101.271950
2727.360352	82.504936
2726.693604	97.490540
2726.026855	59.984764
2725.359863	108.705330
2724.692871	93.696785
2724.025635	89.934799
2723.358398	108.654160
2722.691162	119.875427
2722.023682	123.602127
2721.355957	131.072586
2720.688477	127.307671
2720.020508	101.081398
2719.352783	119.781372
2718.684814	119.762566
2718.016602	116.001770
2717.348389	97.276527
2716.680176	115.965340
2716.011719	119.687363
2715.343262	74.792854
2714.674561	97.215439
2714.005859	100.938644
2713.337158	59.806095
2712.668213	108.381523
2711.999023	78.470840
2711.329834	67.250160
2710.660645	74.710655
2709.991455	74.698921
2709.321777	63.484108
2708.652344	70.941673
2707.982666	55.997787
2707.312988	55.988987
2706.643066	74.640251
2705.972900	85.822800
2705.302979	67.155113
2704.632813	70.874809
2703.962402	59.674671
2703.291992	70.852531
2702.621582	78.298386
2701.950928	59.646534
2701.280273	70.819122
2700.609375	59.627781
2699.938477	37.261501
2699.267334	44.706772
2698.596191	26.074850
2697.925049	18.621964
2697.253662	52.133297
2696.582031	44.678658
2695.910645	48.394264
2695.239014	48.386654
2694.567139	52.100506
2693.895264	52.092312
2693.223145	33.482647
2692.551270	37.197086
2691.878906	40.910358
2691.206543	33.466846
2690.534180	59.487251
2689.861816	-3.717368
2689.189209	33.451050
2688.516357	55.742973
2687.843506	55.734200
2687.170654	40.865314
2686.497559	37.144440
2685.824463	29.710873
2685.151123	48.272568
2684.477783	51.977661
2683.804199	59.393688
2683.130615	33.403690
2682.457031	44.531239
2681.783203	48.234581
2681.109375	55.646523
2680.435303	40.801022
2679.761230	48.211796
2679.086914	37.080158
2678.412598	33.366886
2677.738281	33.361629
2677.063721	44.475166
2676.389160	51.879520
2675.714355	77.807022
2675.039551	25.931587
2674.364502	37.039288
2673.689453	48.143490
2673.014404	33.324856
2672.339111	33.319603
2671.663574	62.927113
2670.988037	40.711128
2670.312500	48.105568
2669.636719	3.699845
2668.960938	29.594095
2668.285156	55.480183
2667.609131	18.490479
2666.932861	40.672642
2666.256592	40.666229
2665.580322	40.659817
2664.903809	3.695764
2664.227295	51.732540
2663.550781	62.808178
2662.874023	44.328194
2662.197021	36.934338
2661.520020	48.007065
2660.843018	59.076298
2660.165771	77.525414
2659.488525	59.057663
2658.811035	51.667305
2658.133545	66.418907
2657.455811	44.272289
2656.778076	59.020405
2656.100342	36.881931
2655.422363	59.001781
2654.744385	62.679501
2654.066162	29.491581
2653.387939	81.089050
2652.709473	51.593979
2652.031006	51.585835
2651.352539	25.788845
2650.673828	33.151855
2649.994873	33.146622
2649.316162	36.823765
2648.636963	40.499744
2647.958008	47.855778
2647.278809	51.528854
2646.599365	58.880821
2645.919922	36.794704
2645.240479	73.577782
2644.560791	55.174625
2643.880859	44.132729
2643.201172	55.157196
2642.520996	62.501617
2641.841064	14.703939
2641.160889	44.104851
2640.480469	25.723764
2639.800049	55.113647
2639.119629	33.062962
2638.438965	40.403904
2637.758301	62.432529
2637.077393	44.063057
2636.396484	29.370729
2635.715332	36.707611
2635.034180	29.361446
2634.353027	47.704807
2633.671631	25.683146
2632.989990	22.010645
2632.308350	18.339304
2631.626709	22.003685
2630.944824	18.333506
2630.262939	36.661213
2629.581055	25.658792
2628.898926	25.654736
2628.216553	47.636974
