#Wave		#Intensity
3200.600830	4.209852
3200.007080	8.419704
3199.413086	16.836864
3198.819092	12.625739
3198.224854	25.247662
3197.630615	8.414616
3197.036377	42.066715
3196.442139	37.854321
3195.847656	21.027000
3195.252930	12.614292
3194.658447	-25.224771
3194.063721	58.848900
3193.468750	33.622856
3192.873779	16.808887
3192.278809	4.201586
3191.683838	12.602853
3191.088623	16.801262
3190.493164	12.599041
3189.897949	29.393316
3189.302490	12.595230
3188.706787	58.768848
3188.111328	25.182840
3187.515381	33.572041
3186.919678	16.783482
3186.323730	8.390471
3185.727783	25.167604
3185.131592	41.939659
3184.535400	8.386662
3183.939209	16.770788
3183.342773	-4.192062
3182.746338	29.339996
3182.149902	8.381587
3181.553223	12.570478
3180.956543	58.653355
3180.359619	8.377783
3179.762695	-16.753029
3179.165771	8.375246
3178.568604	-4.186989
3177.971436	50.236263
3177.374268	12.557164
3176.776855	12.555264
3176.179443	37.660088
3175.581787	20.919104
3174.984131	8.366374
3174.386475	33.460430
3173.788574	20.909601
3173.190674	37.631580
3172.592773	45.987190
3171.994629	-8.360041
3171.396484	0.000000
3170.798340	20.893770
3170.199951	12.534364
3169.601563	25.064930
3169.002930	-16.707422
3168.404297	45.938450
3167.805664	4.175590
3167.206787	4.174957
3166.607910	50.091896
3166.008789	37.563229
3165.409912	37.557537
3164.810547	20.862135
3164.211426	37.546154
3163.612061	20.855812
3163.012695	29.193712
3162.413086	8.339796
3161.813477	-4.169266
3161.213623	16.674536
3160.614014	25.008013
3160.013916	29.171593
3159.414063	25.000431
3158.813965	4.166107
3158.213867	29.158325
3157.613525	45.813278
3157.013184	16.656847
3156.412598	54.126545
3155.812256	16.651796
3155.211426	41.623177
3154.610840	20.808432
3154.010010	33.288441
3153.409180	-24.962543
3152.808105	54.077309
3152.207031	33.273296
3151.605957	0.000000
3151.004639	20.789501
3150.403320	0.000000
3149.801758	37.409748
3149.200195	4.156008
3148.598633	37.398396
3147.996826	-8.309493
3147.395020	24.924696
3146.793213	4.153486
3146.191162	8.305711
3145.589111	16.608900
3144.986816	45.667542
3144.384766	24.905788
3143.782227	0.000000
3143.179932	12.449114
3142.577393	16.596298
3141.974609	0.000000
3141.371826	-16.591259
3140.769043	16.588739
3140.166260	16.586222
3139.563232	20.729628
3138.960205	29.017073
3138.356934	20.723333
3137.753662	8.288074
3137.150391	12.430223
3136.546875	4.142778
3135.943359	16.568598
3135.339600	-8.283040
3134.735840	20.704454
3134.132080	28.981833
3133.528076	24.837797
3132.924072	16.556017
3132.320068	28.968626
3131.715820	8.275493
3131.111572	62.056767
3130.507080	53.774357
3129.902588	28.951023
3129.298096	8.270464
3128.693604	8.269207
3128.088867	20.669876
3127.483887	28.933428
3126.878906	-16.530874
3126.273926	16.528360
3125.668945	37.183159
3125.063721	28.915838
3124.458252	16.520824
3123.853027	24.777470
3123.247559	12.386850
3122.641846	20.641613
3122.036133	4.127695
3121.430420	-8.254134
3120.824707	28.885077
3120.218750	8.251624
3119.612549	12.375553
3119.006592	12.373671
3118.400391	24.743578
3117.793945	32.986420
3117.187500	-8.245350
3116.581055	12.366144
3115.974609	41.214211
3115.367920	32.966351
3114.760986	37.081501
3114.154297	37.075859
3113.547363	20.594566
3112.940186	37.064579
3112.333008	12.352980
3111.725830	16.468132
3111.118408	0.000000
3110.510986	49.389362
3109.903564	28.806076
3109.295898	28.801691
3108.688232	16.455605
3108.080566	16.453100
3107.472656	37.013840
3106.864746	28.784159
3106.256592	41.113964
3105.648438	53.440018
3105.040039	53.431881
3104.431885	4.109519
3103.823486	-12.326679
3103.214844	41.082672
3102.606201	32.861134
3101.997559	65.712257
3101.388672	20.531952
3100.779785	0.000000
3100.170898	20.525700
3099.561768	8.209029
3098.952637	4.103889
3098.343262	8.206528
3097.733887	8.205277
3097.124512	36.918125
3096.514893	12.304167
3095.905273	20.503819
3095.295410	0.000000
3094.685791	32.796112
3094.075684	16.395557
3093.465820	49.179176
3092.855713	36.878761
3092.245361	-4.097016
3091.635254	40.963913
3091.024658	24.574600
3090.414307	20.475712
3089.803711	16.378073
3089.193115	32.751152
3088.582275	-4.093270
3087.971436	36.833813
3087.360596	36.828194
3086.749512	32.731182
3086.138428	24.544643
3085.527100	-4.090150
3084.915771	16.358105
3084.304443	12.266707
3083.692871	16.353115
3083.081299	28.613588
3082.469482	20.435160
3081.857910	-8.172817
3081.245850	8.171570
3080.634033	40.851620
3080.021973	20.422693
3079.409668	12.251746
3078.797607	8.166585
3078.185059	44.909363
3077.572754	32.656372
3076.960205	12.244270
3076.347656	20.404003
3075.734863	16.320711
3075.122070	4.079555
3074.509033	36.710392
3073.895996	24.469858
3073.282959	20.388435
3072.669922	32.616520
3072.056641	16.305769
3071.443115	32.606560
3070.829834	16.300791
3070.216064	16.298302
3069.602539	40.739536
3068.988770	-20.366657
3068.375000	52.945221
3067.760986	-8.144175
3067.146973	28.500259
3066.532715	12.212531
3065.918701	56.983109
3065.304199	24.417603
3064.689941	28.482851
3064.075439	32.546856
3063.460693	28.474150
3062.846191	16.268457
3062.231445	28.465450
3061.616455	28.461102
3061.001465	44.717754
3060.386475	20.323147
3059.771240	16.256033
3059.156006	32.507095
3058.540771	20.313831
3057.925293	52.807888
3057.309814	16.246098
3056.694092	32.487228
3056.078369	-8.120565
3055.462646	32.477299
3054.846680	20.295208
3054.230713	40.584213
3053.614502	48.693607
3052.998291	24.343082
3052.382080	28.395920
3051.765625	12.167819
3051.149170	24.331917
3050.532715	40.546993
3049.916016	44.594872
3049.299316	28.374216
3048.682373	40.528393
3048.065430	28.365538
3047.448486	28.361198
3046.831299	40.509800
3046.214111	20.251802
3045.596680	16.198963
3044.979248	4.049121
3044.361816	24.291010
3043.744141	12.143647
3043.126465	24.283577
3042.508545	36.419792
3041.890869	8.092049
3041.272705	48.544865
3040.654785	60.671791
3040.036621	8.088334
3039.418213	20.217741
3038.799805	28.300505
3038.181396	48.507725
3037.562988	12.125075
3036.944336	24.246437
3036.325439	28.283180
3035.706543	32.318687
3035.087646	44.431389
3034.468750	40.385986
3033.849609	28.265863
3033.230469	60.560432
3032.611084	20.183720
3031.991699	32.289005
3031.372070	64.568123
3030.752441	28.244226
3030.132813	28.239901
3029.513184	44.370190
3028.893066	20.165178
3028.273193	44.356598
3027.653076	32.254402
3027.032959	20.155912
3026.412598	32.244518
3025.792480	-8.059895
3025.171875	24.175978
3024.551270	48.344547
3023.930664	16.112379
3023.310059	36.247299
3022.689209	20.134302
3022.068115	20.131216
3021.447266	28.179384
3020.826172	44.275101
3020.204834	48.292706
3019.583496	40.237751
3018.962158	48.277901
3018.340576	8.045083
3017.718994	24.131550
3017.097412	64.340935
3016.475586	24.124151
3015.853760	40.200752
3015.231689	8.038918
3014.609619	20.094212
3013.987549	28.127583
3013.365234	-4.017610
3012.742920	16.067974
3012.120361	12.049132
3011.497803	8.031523
3010.875244	44.166599
3010.252441	40.145294
3009.629639	44.153049
3009.006836	12.039893
3008.383789	28.088774
3007.760498	44.132729
3007.137451	36.103054
3006.514160	4.010835
3005.890625	20.051098
3005.267090	20.048021
3004.643555	56.125843
3004.019775	40.083736
3003.395996	28.054308
3002.772217	28.050001
3002.148193	68.110977
3001.524170	68.100517
3000.899902	24.031788
3000.275635	48.056194
2999.651367	28.028477
2999.026855	48.041439
2998.402344	12.008516
2997.777588	36.020016
2997.152832	72.028969
2996.528076	12.002985
2995.903076	24.002283
2995.278076	11.999298
2994.653076	39.991516
2994.027832	39.985374
2993.402344	31.983385
2992.777100	19.986546
2992.151367	47.960339
2991.525879	39.960808
2990.900146	51.941071
2990.274414	35.953678
2989.648438	3.994239
2989.022461	43.929878
2988.396240	19.965059
2987.770264	31.939184
2987.143799	7.983569
2986.517578	47.894051
2985.891113	35.915016
2985.264404	15.959777
2984.637695	7.978662
2984.010986	35.898457
2983.384033	39.881042
2982.757080	39.874912
2982.130127	35.881905
2981.502930	55.807713
2980.875732	47.827827
2980.248291	31.880316
2979.620850	39.844265
2978.993408	19.919069
2978.365723	3.983201
2977.738037	15.930354
2977.110107	43.801735
2976.482178	59.720451
2975.854248	35.826759
2975.226074	7.960278
2974.597900	7.959053
2973.969482	47.746971
2973.341309	51.717926
2972.712646	63.643036
2972.083984	35.793701
2971.455322	51.694057
2970.826660	39.758537
2970.197754	55.653389
2969.568604	67.568718
2968.939697	75.506355
2968.310547	23.840441
2967.681152	79.455902
2967.051758	55.610573
2966.422363	67.516731
2965.792725	51.622490
2965.163086	75.436638
2964.533203	63.515812
2963.903564	67.475159
2963.273438	83.338837
2962.643311	83.325996
2962.013184	43.640232
2961.383057	47.600193
2960.752686	75.355362
2960.122314	31.723688
2959.491699	75.332153
2958.861084	51.535114
2958.230225	103.054352
2957.599609	55.482258
2956.968506	83.210564
2956.337646	31.694380
2955.706299	55.456619
2955.075195	95.053841
2954.443848	67.319427
2953.812500	67.309052
2953.180908	67.298683
2952.549316	71.246445
2951.917725	94.980621
2951.285889	67.267570
2950.653809	118.689186
2950.021973	67.246834
2949.389893	87.011902
2948.757568	63.271629
2948.125244	90.938950
2947.492920	122.550987
2946.860352	110.674149
2946.227783	86.944855
2945.595215	94.834305
2944.962402	90.868858
2944.329590	82.954430
2943.696533	78.992035
2943.063477	71.081863
2942.430420	75.019287
2941.797119	98.694359
2941.163574	86.837639
2940.530273	82.877686
2939.896729	90.756798
2939.262939	55.234745
2938.629150	106.507721
2937.995361	78.882439
2937.361328	90.700806
2936.727295	59.143570
2936.093262	98.557404
2935.458984	118.250641
2934.824707	86.703751
2934.190186	66.988014
2933.555664	63.037811
2932.921143	102.420631
2932.286377	90.588882
2931.651367	129.955292
2931.016602	133.872665
2930.381592	114.167877
2929.746338	114.150253
2929.111084	102.325806
2928.475830	98.375000
2927.840332	114.097382
2927.204834	125.881119
2926.569336	137.661209
2925.933594	114.044533
2925.297607	129.754776
2924.661865	180.842346
2924.025879	125.783943
2923.389648	153.275497
2922.753418	153.251831
2922.117188	110.009956
2921.480713	121.777916
2920.844238	164.963943
2920.207764	121.740295
2919.571045	129.574478
2918.934082	137.406250
2918.297363	149.160873
2917.660156	137.363785
2917.023193	153.038849
2916.385986	141.244797
2915.748779	121.608658
2915.111328	121.589867
2914.473877	109.806129
2913.836182	172.525818
2913.198486	113.692619
2912.560791	160.712982
2911.922852	121.495911
2911.284912	97.965424
2910.646729	70.524200
2910.008545	117.522156
2909.370361	129.254379
2908.731934	137.066788
2908.093506	109.636467
2907.455078	148.769333
2906.816406	121.345688
2906.177490	136.982010
2905.538574	129.134476
2904.899658	129.114502
2904.260498	144.742355
2903.621338	113.429161
2902.982178	156.429810
2902.342773	117.304199
2901.703369	132.924194
2901.063721	152.448273
2900.424072	128.974731
2899.784424	128.954773
2899.144531	160.191742
2898.504639	140.634399
2897.864502	179.671692
2897.224365	140.590866
2896.583984	128.855011
2895.943848	124.930969
2895.303223	132.718597
2894.662842	128.795166
2894.021973	156.091187
2893.381348	124.853615
2892.740479	144.339645
2892.099609	117.014023
2891.458496	113.096039
2890.817383	167.668152
2890.176025	159.844879
2889.534668	167.616226
2888.893311	155.897919
2888.251709	140.286392
2887.610107	144.160904
2886.968262	167.512390
2886.326416	128.536102
2885.684570	190.827072
2885.042480	175.222198
2884.400391	198.554382
2883.758057	128.456467
2883.115723	167.356720
2882.473389	198.462097
2881.830811	163.414047
2881.188232	163.388718
2880.545410	167.253006
2879.902588	202.228088
2879.259766	186.643158
2878.616699	194.389816
2877.973633	147.713348
2877.330322	155.463638
2876.687012	167.097504
2876.043457	178.727753
2875.399902	194.239166
2874.756348	170.903961
2874.112549	194.178940
2873.468750	159.202026
2872.824707	194.118713
2872.180664	163.034424
2871.536621	194.058502
2870.892334	201.789536
2870.248047	228.917999
2869.603760	182.330124
2868.958984	186.180588
2868.314453	155.126419
2867.669678	166.735031
2867.024902	186.093948
2866.379883	170.559647
2865.734863	162.781677
2865.089844	166.631577
2864.444580	143.358398
2863.799316	193.697510
2863.153809	151.060608
2862.508301	182.019135
2861.862549	143.269424
2861.216797	158.733368
2860.571045	154.837784
2859.925049	135.462021
2859.279053	185.747650
2858.632813	166.373093
2857.986572	143.136017
2857.340332	123.774094
2856.693848	170.162949
2856.047363	135.335876
2855.400635	135.314850
2854.753906	135.293839
2854.107178	146.867630
2853.460205	170.030853
2852.813232	135.230804
2852.166016	177.704300
2851.518799	119.738647
2850.871338	135.167786
2850.223877	154.453476
2849.576416	169.872421
2848.928711	138.964935
2848.281006	165.960098
2847.633301	123.486000
2846.985352	173.625198
2846.337158	123.447617
2845.688965	127.285568
2845.040771	134.978867
2844.392578	150.381638
2843.743896	115.660202
2843.095459	165.753860
2842.446777	134.894958
2841.798096	115.606270
2841.149170	146.411850
2840.500244	123.275017
2839.851074	92.441887
2839.202148	100.129799
2838.552734	107.815323
2837.903320	84.698868
2837.253906	119.329842
2836.604492	107.765030
2835.954834	134.685333
2835.304932	103.883957
2834.655029	111.561707
2834.005127	65.388069
2833.354980	69.223656
2832.704834	88.438683
2832.054688	65.357552
2831.404297	61.503418
2830.753906	73.023949
2830.103271	96.069191
2829.452637	84.527725
2828.801758	69.148285
2828.150879	69.137527
2827.500000	61.446014
2826.848877	61.436447
2826.197754	72.944427
2825.546387	61.417324
2824.895020	46.055820
2824.243408	53.723427
2823.591797	57.551853
2822.940186	34.525734
2822.288330	65.205124
2821.636475	88.204956
2820.984619	69.019218
2820.332520	76.676079
2819.680176	26.832447
2819.028076	57.489147
2818.375488	61.312202
2817.723145	68.965485
2817.070557	53.631466
2816.417725	65.113777
2815.764893	53.614758
2815.112061	26.803202
2814.458984	49.769619
2813.805908	80.384552
2813.152832	84.199265
2812.499512	42.093071
2811.845947	38.260468
2811.192383	30.603601
2810.538818	65.022522
2809.885010	26.769806
2809.231201	61.178589
2808.577393	45.876789
2807.923340	45.869637
2807.269287	42.040615
2806.614990	45.855335
2805.960693	64.951599
2805.306152	42.020954
2804.651611	64.931343
2803.997070	26.732267
2803.342285	26.728098
2802.687500	34.359341
2802.032471	57.256634
2801.377441	45.798164
2800.722412	53.422855
2800.067139	41.968555
2799.411621	38.147278
2798.756348	26.698929
2798.100586	53.389530
2797.445068	57.194141
2796.789307	49.560524
2796.133301	60.988049
2795.477539	22.866949
2794.821289	49.537327
2794.165283	57.149532
2793.509033	53.331238
2792.852539	45.705357
2792.196045	72.355522
2791.539551	15.230363
2790.882813	38.069965
2790.226074	26.644815
2789.569092	53.281311
2788.912109	64.688629
2788.255127	26.632338
2787.597900	64.668434
2786.940430	34.230885
2786.283203	34.225540
2785.625488	57.033657
2784.968018	49.421448
2784.310303	49.413731
2783.652588	38.004627
2782.994629	68.397644
2782.336426	22.795652
2781.678467	37.986820
2781.020264	60.769413
2780.361816	45.569942
2779.703369	53.156624
2779.044922	41.759392
2778.386230	37.957153
2777.727539	41.746346
2777.068604	53.123409
2776.409668	30.351488
2775.750732	41.726776
2775.091553	53.098503
2774.432373	30.337259
2773.772949	41.707211
2773.113525	49.282635
2772.453857	45.484554
2771.794189	75.795738
2771.134521	56.837914
2770.474609	34.097416
2769.814697	34.092087
2769.154541	60.598675
2768.494385	56.802372
2767.833984	56.793491
2767.173584	52.998966
2766.513184	60.560776
2765.852539	64.335762
2765.191895	34.054779
2764.531006	41.615997
2763.870117	71.870934
2763.209229	49.167156
2762.548096	64.285454
2761.886719	37.809055
2761.225586	15.121256
2760.563965	49.136395
2759.902588	52.907837
2759.240967	34.006859
2758.579102	56.669224
2757.917236	83.101852
2757.255371	33.990894
2756.593262	45.314095
2755.931152	45.307003
2755.269043	33.974934
2754.606689	45.292820
2753.944092	26.416676
2753.281494	67.917953
2752.618896	56.589436
2751.956055	49.036499
2751.293213	52.800266
2750.630371	49.021141
2749.967285	52.783730
2749.303955	37.696762
2748.640625	45.229027
2747.977295	79.138397
2747.313721	60.286480
2746.650146	52.742405
2745.986572	41.433971
2745.322754	52.725883
2744.658691	64.014252
2743.994873	75.299088
2743.330566	60.229832
2742.666504	52.692844
2742.002197	60.210957
2741.337646	63.964115
2740.673096	37.620052
2740.008545	37.614159
2739.343750	52.651566
2738.678955	60.163788
2738.013916	56.394707
2737.348877	37.590580
2736.683594	63.893967
2736.018311	60.126068
2735.353027	78.903091
2734.687500	41.323711
2734.021973	60.097790
2733.356201	93.888069
2732.690430	26.284538
2732.024658	90.104279
2731.358643	56.306343
2730.692383	37.531673
2730.026367	82.556732
2729.359863	26.263931
2728.693604	48.768219
2728.027100	45.009754
2727.360352	26.251572
2726.693604	52.494907
2726.026855	56.235718
2725.359863	52.478432
2724.692871	63.713814
2724.025635	71.198380
2723.358398	26.226866
2722.691162	52.445499
2722.023682	78.655899
2721.355957	67.408760
2720.688477	52.420807
2720.020508	82.362625
2719.352783	71.120186
2718.684814	67.366440
2718.016602	74.839851
2717.348389	63.603886
2716.680176	74.816353
2716.011719	67.324142
2715.343262	52.355000
2714.674561	71.042053
2714.005859	48.600086
2713.337158	59.806095
2712.668213	59.796703
2711.999023	52.313896
2711.329834	97.139114
2710.660645	44.826393
2709.991455	44.819351
2709.321777	48.546669
2708.652344	78.409225
2707.982666	33.598671
2707.312988	78.384583
2706.643066	67.176224
2705.972900	48.508537
2705.302979	41.039234
2704.632813	59.684052
2703.962402	48.485668
2703.291992	82.039772
2702.621582	70.841393
2701.950928	59.646534
2701.280273	78.273766
2700.609375	74.534721
2699.938477	78.249153
2699.267334	55.883465
2698.596191	48.424721
2697.925049	52.141499
2697.253662	59.580914
2696.582031	52.125099
2695.910645	59.562172
2695.239014	33.498451
2694.567139	48.379044
2693.895264	33.487915
2693.223145	55.804409
2692.551270	26.037962
2691.878906	48.348606
2691.206543	63.215153
2690.534180	74.359062
2689.861816	37.173683
2689.189209	85.486015
2688.516357	59.459171
2687.843506	63.165428
2687.170654	55.725430
2686.497559	48.287769
2685.824463	63.135605
2685.151123	48.272568
2684.477783	55.690350
2683.804199	70.530006
2683.130615	74.230423
2682.457031	40.820305
2681.783203	59.365639
2681.109375	55.646523
2680.435303	44.510208
2679.761230	25.960199
2679.086914	44.496189
2678.412598	74.148636
2677.738281	55.602715
2677.063721	44.475166
2676.389160	70.407921
2675.714355	59.281540
2675.039551	70.385742
2674.364502	74.078575
2673.689453	66.660217
2673.014404	33.324856
2672.339111	70.341385
2671.663574	74.031898
2670.988037	55.515175
2670.312500	74.008568
2669.636719	70.297058
2668.960938	73.985237
2668.285156	40.685467
2667.609131	70.263817
2666.932861	73.950256
2666.256592	59.150879
2665.580322	40.659817
2664.903809	51.740700
2664.227295	44.342178
2663.550781	73.891975
2662.874023	40.634178
2662.197021	70.175240
2661.520020	55.392765
2660.843018	66.460838
2660.165771	92.292160
2659.488525	70.130974
2658.811035	92.263039
2658.133545	51.659153
2657.455811	51.651005
2656.778076	55.331631
2656.100342	70.075668
2655.422363	51.626560
2654.744385	88.488708
2654.066162	51.610268
2653.387939	62.659718
2652.709473	70.020401
2652.031006	44.216431
2651.352539	51.577690
2650.673828	69.987244
2649.994873	88.390991
2649.316162	66.282776
2648.636963	51.545132
2647.958008	58.899422
2647.278809	66.251389
2646.599365	44.160618
2645.919922	84.627815
2645.240479	40.467781
2644.560791	58.852932
2643.880859	51.488182
2643.201172	47.802906
2642.520996	44.118790
2641.841064	62.491745
2641.160889	62.481873
2640.480469	40.423061
2639.800049	66.136375
2639.119629	55.104939
2638.438965	51.423149
2637.758301	80.795036
2637.077393	66.094582
2636.396484	88.112190
2635.715332	62.402935
2635.034180	44.042168
2634.353027	73.392014
2633.671631	77.049431
2632.989990	69.700371
2632.308350	66.021492
2631.626709	66.011055
2630.944824	69.667320
2630.262939	40.327335
2629.581055	76.976379
2628.898926	84.294128
2628.216553	47.636974
2627.534180	69.612259
2626.851807	51.285133
2626.169189	51.277023
