#Wave		#Intensity
3200.600830	88.406898
3200.007080	50.518227
3199.413086	16.836864
3198.819092	50.502956
3198.224854	37.871494
3197.630615	50.487694
3197.036377	46.273388
3196.442139	46.266392
3195.847656	29.437799
3195.252930	50.457169
3194.658447	50.449543
3194.063721	100.883827
3193.468750	54.637142
3192.873779	71.437767
3192.278809	33.612690
3191.683838	58.813313
3191.088623	29.402208
3190.493164	62.995205
3189.897949	54.587585
3189.302490	37.785690
3188.706787	71.362175
3188.111328	41.971401
3187.515381	62.947575
3186.919678	41.958702
3186.323730	50.342823
3185.727783	37.751408
3185.131592	41.939659
3184.535400	25.159988
3183.939209	41.926968
3183.342773	46.112686
3182.746338	20.957140
3182.149902	41.907936
3181.553223	54.472073
3180.956543	25.137152
3180.359619	41.888912
3179.762695	16.753029
3179.165771	83.752464
3178.568604	54.430859
3177.971436	83.727104
3177.374268	46.042938
3176.776855	41.850880
3176.179443	50.213451
3175.581787	29.286743
3174.984131	54.381432
3174.386475	50.190643
3173.788574	20.909601
3173.190674	71.081879
3172.592773	4.180654
3171.994629	37.620182
3171.396484	71.049583
3170.798340	54.323803
3170.199951	16.712484
3169.601563	75.194786
3169.002930	37.591698
3168.404297	16.704891
3167.805664	41.755898
3167.206787	37.574615
3166.607910	16.697298
3166.008789	33.389538
3165.409912	66.768951
3164.810547	37.551846
3164.211426	75.092308
3163.612061	62.567440
3163.012695	33.364243
3162.413086	25.019390
3161.813477	58.369724
3161.213623	16.674536
3160.614014	58.352032
3160.013916	20.836851
3159.414063	20.833693
3158.813965	49.993282
3158.213867	24.992851
3157.613525	54.142963
3157.013184	33.313694
3156.412598	16.654322
3155.812256	58.281288
3155.211426	37.460857
3154.610840	29.131805
3154.010010	37.449497
3153.409180	58.245937
3152.808105	41.597931
3152.207031	74.864914
3151.605957	33.268250
3151.004639	24.947401
3150.403320	24.943615
3149.801758	41.566383
3149.200195	33.248062
3148.598633	33.243019
3147.996826	29.083227
3147.395020	54.003510
3146.793213	29.074400
3146.191162	33.222843
3145.589111	29.065575
3144.986816	37.364353
3144.384766	33.207718
3143.782227	62.255016
3143.179932	62.245567
3142.577393	45.639820
3141.974609	70.523560
3141.371826	20.739075
3140.769043	29.030294
3140.166260	58.051773
3139.563232	41.459255
3138.960205	37.307667
3138.356934	49.736000
3137.753662	41.440372
3137.150391	20.717039
3136.546875	16.571114
3135.943359	41.421494
3135.339600	24.849121
3134.735840	45.549801
3134.132080	86.945503
3133.528076	20.698164
3132.924072	33.112034
3132.320068	16.553501
3131.715820	28.964224
3131.111572	53.782528
3130.507080	37.228401
3129.902588	16.543442
3129.298096	41.352318
3128.693604	33.076828
3128.088867	41.339752
3127.483887	53.733505
3126.878906	57.858059
3126.273926	74.377625
3125.668945	49.577545
3125.063721	57.831676
3124.458252	49.562473
3123.853027	66.073250
3123.247559	70.192154
3122.641846	57.796513
3122.036133	70.170807
3121.430420	12.381201
3120.824707	57.770153
3120.218750	74.264618
3119.612549	28.876291
3119.006592	70.117470
3118.400391	16.495718
3117.793945	57.726234
3117.187500	24.736052
3116.581055	57.708672
3115.974609	32.971367
3115.367920	37.087147
3114.760986	45.321838
3114.154297	49.434483
3113.547363	65.902611
3112.940186	45.301151
3112.333008	24.705959
3111.725830	37.053299
3111.118408	57.629692
3110.510986	53.505142
3109.903564	37.036385
3109.295898	78.176018
3108.688232	57.594616
3108.080566	65.812401
3107.472656	57.577080
3106.864746	53.456295
3106.256592	45.225361
3105.648438	24.664623
3105.040039	36.991302
3104.431885	45.204708
3103.823486	49.306717
3103.214844	28.757872
3102.606201	24.645849
3101.997559	45.177177
3101.388672	41.063904
3100.779785	57.480713
3100.170898	61.577095
3099.561768	69.776749
3098.952637	28.727224
3098.343262	41.032639
3097.733887	32.821110
3097.124512	32.816109
3096.514893	45.115276
3095.905273	53.309929
3095.295410	20.500694
3094.685791	53.293686
3094.075684	36.890007
3093.465820	40.982647
3092.855713	65.562241
3092.245361	61.455235
3091.635254	53.253086
3091.024658	45.053436
3090.414307	57.331993
3089.803711	69.606812
3089.193115	32.751152
3088.582275	65.492317
3087.971436	61.389687
3087.360596	61.380325
3086.749512	77.736557
3086.138428	32.726192
3085.527100	53.171951
3084.915771	61.342896
3084.304443	36.800125
3083.692871	32.706230
3083.081299	57.227177
3082.469482	53.131416
3081.857910	53.123310
3081.245850	44.943638
3080.634033	36.766457
3080.021973	57.183540
3079.409668	49.006985
3078.797607	53.082798
3078.185059	73.488045
3077.572754	32.656372
3076.960205	69.384201
3076.347656	44.888805
3075.734863	73.443199
3075.122070	20.397776
3074.509033	40.789322
3073.895996	44.861408
3073.282959	44.854561
3072.669922	36.693584
3072.056641	36.687981
3071.443115	20.379101
3070.829834	52.977573
3070.216064	36.671181
3069.602539	32.591629
3068.988770	48.879978
3068.375000	24.436256
3067.760986	32.576698
3067.146973	24.428793
3066.532715	52.920971
3065.918701	61.053329
3065.304199	69.183205
3064.689941	32.551830
3064.075439	81.367142
3063.460693	44.745094
3062.846191	32.536915
3062.231445	16.265972
3061.616455	20.329359
3061.001465	52.848255
3060.386475	28.452404
3059.771240	60.960121
3059.156006	69.077583
3058.540771	48.753193
3057.925293	60.932178
3057.309814	52.799816
3056.694092	-12.182711
3056.078369	20.301414
3055.462646	12.178987
3054.846680	8.118083
3054.230713	32.467369
3053.614502	44.635807
3052.998291	28.400263
3052.382080	40.565601
3051.765625	12.167819
3051.149170	68.940430
3050.532715	52.711094
3049.916016	36.486713
3049.299316	36.481136
3048.682373	24.317038
3048.065430	36.469975
3047.448486	16.206400
3046.831299	60.764702
3046.214111	28.352522
3045.596680	12.149222
3044.979248	64.785942
3044.361816	36.436516
3043.744141	16.191528
3043.126465	28.330841
3042.508545	52.606369
3041.890869	32.368195
3041.272705	60.681080
3040.654785	56.627007
3040.036621	60.662506
3039.418213	80.870964
3038.799805	36.386364
3038.181396	72.761589
3037.562988	32.333534
3036.944336	36.369656
3036.325439	56.566360
3035.706543	52.517864
3035.087646	12.117652
3034.468750	40.385986
3033.849609	40.379803
3033.230469	48.448345
3032.611084	24.220463
3031.991699	64.578011
3031.372070	68.603630
3030.752441	52.453564
3030.132813	44.376987
3029.513184	64.538460
3028.893066	60.495533
3028.273193	60.486267
3027.653076	28.222601
3027.032959	28.218277
3026.412598	44.336212
3025.792480	44.329418
3025.171875	56.410618
3024.551270	60.430687
3023.930664	52.365234
3023.310059	96.659462
3022.689209	56.376045
3022.068115	60.393650
3021.447266	60.384392
3020.826172	72.450165
3020.204834	36.219528
3019.583496	76.451729
3018.962158	60.347378
3018.340576	56.315582
3017.718994	52.285023
3017.097412	76.404861
3016.475586	56.289684
3015.853760	60.301128
3015.231689	52.252964
3014.609619	80.376846
3013.987549	48.218712
3013.365234	60.264145
3012.742920	56.237911
3012.120361	56.229282
3011.497803	52.204899
3010.875244	36.136307
3010.252441	40.145294
3009.629639	44.153049
3009.006836	56.186169
3008.383789	52.164864
3007.760498	52.156860
3007.137451	104.297714
3006.514160	84.227539
3005.890625	48.122635
3005.267090	56.134457
3004.643555	64.143822
3004.019775	52.108856
3003.395996	88.170685
3002.772217	60.107147
3002.148193	64.104446
3001.524170	68.100517
3000.899902	60.079468
3000.275635	80.093658
2999.651367	64.065094
2999.026855	44.037987
2998.402344	112.079483
2997.777588	80.044479
2997.152832	64.025749
2996.528076	80.019897
2995.903076	56.005325
2995.278076	67.996025
2994.653076	31.993214
2994.027832	63.976597
2993.402344	47.975079
2992.777100	47.967709
2992.151367	63.947117
2991.525879	63.937294
2990.900146	75.913872
2990.274414	51.933090
2989.648438	55.919350
2989.022461	47.923504
2988.396240	63.888187
2987.770264	71.863167
2987.143799	75.843903
2986.517578	83.814590
2985.891113	123.707283
2985.264404	67.829048
2984.637695	91.754608
2984.010986	67.808197
2983.384033	75.773987
2982.757080	71.774841
2982.130127	79.737564
2981.502930	103.642891
2980.875732	87.684349
2980.248291	115.566139
2979.620850	107.579514
2978.993408	111.546783
2978.365723	103.563232
2977.738037	63.721416
2977.110107	107.513351
2976.482178	131.384995
2975.854248	107.480278
2975.226074	135.324722
2974.597900	99.488159
2973.969482	131.304169
2973.341309	115.370758
2972.712646	182.973740
2972.083984	139.197723
2971.455322	151.105698
2970.826660	198.792694
2970.197754	166.960159
2969.568604	170.909103
2968.939697	202.674942
2968.310547	190.723526
2967.681152	214.530945
2967.051758	222.442291
2966.422363	246.237488
2965.792725	262.083405
2965.163086	277.924469
2964.533203	277.881683
2963.903564	325.468414
2963.273438	277.796112
2962.643311	361.079346
2962.013184	357.056427
2961.383057	273.701111
2960.752686	408.505402
2960.122314	368.787872
2959.491699	376.660767
2958.861084	360.745789
2958.230225	372.581116
2957.599609	392.338806
2956.968506	451.714478
2956.337646	336.752777
2955.706299	384.235138
2955.075195	400.018250
2954.443848	380.156769
2953.812500	419.691742
2953.180908	455.255798
2952.549316	451.227509
2951.917725	490.733215
2951.285889	490.657593
2950.653809	526.188721
2950.021973	545.886108
2949.389893	537.891785
2948.757568	486.400665
2948.125244	581.218506
2947.492920	525.783264
2946.860352	498.033661
2946.227783	497.956879
2945.595215	391.191498
2944.962402	414.836090
2944.329590	375.270020
2943.696533	383.111359
2943.063477	387.001251
2942.430420	296.128754
2941.797119	327.665283
2941.163574	268.407257
2940.530273	248.633072
2939.896729	315.675812
2939.262939	284.064423
2938.629150	303.744232
2937.995361	280.032654
2937.361328	276.045929
2936.727295	208.973953
2936.093262	283.845337
2935.458984	268.034790
2934.824707	319.227448
2934.190186	323.118652
2933.555664	291.549866
2932.921143	307.261902
2932.286377	338.723633
2931.651367	381.989777
2931.016602	354.368805
2930.381592	448.797852
2929.746338	377.876678
2929.111084	472.272919
2928.475830	507.615021
2927.840332	507.536621
2927.204834	511.392059
2926.569336	542.778503
2925.933594	593.818054
2925.297607	633.046021
2924.661865	613.291443
2924.025879	558.166260
2923.389648	672.054138
2922.753418	652.302612
2922.117188	667.917603
2921.480713	644.244446
2920.844238	738.410034
2920.207764	663.680969
2919.571045	710.696411
2918.934082	639.920532
2918.297363	671.223938
2917.660156	663.270813
2917.023193	643.547974
2916.385986	615.984253
2915.748779	572.737549
2915.111328	647.171875
2914.473877	619.620300
2913.836182	599.919312
2913.198486	529.258728
2912.560791	658.531250
2911.922852	583.964233
2911.284912	630.897339
2910.646729	619.045776
2910.008545	622.867432
2909.370361	685.439880
2908.731934	751.909180
2908.093506	716.552612
2907.455078	790.826477
2906.816406	853.334167
2906.177490	907.994995
2905.538574	927.420349
2904.899658	974.227661
2904.260498	977.988892
2903.621338	1028.685181
2902.982178	1106.740845
2902.342773	1063.558105
2901.703369	1110.307983
2901.063721	1086.682617
2900.424072	961.447998
2899.784424	898.775696
2899.144531	929.893494
2898.504639	996.160278
2897.864502	902.264343
2897.224365	913.840576
2896.583984	901.985046
2895.943848	917.461792
2895.303223	913.416260
2894.662842	796.188354
2894.021973	796.065063
2893.381348	850.565247
2892.740479	889.444275
2892.099609	826.899048
2891.458496	807.271729
2890.817383	904.628174
2890.176025	838.210938
2889.534668	888.755798
2888.893311	986.054321
2888.251709	1013.179504
2887.610107	1001.333801
2886.968262	1051.822021
2886.326416	1137.349731
2885.684570	1113.807007
2885.042480	1175.935669
2884.400391	1167.967041
2883.758057	1311.812988
2883.115723	1245.445435
2882.473389	1268.600830
2881.830811	1326.766479
2881.188232	1338.231445
2880.545410	1345.803223
2879.902588	1384.484619
2879.259766	1329.832520
2878.616699	1267.421631
2877.973633	1240.014771
2877.330322	1169.863892
2876.687012	1200.770386
2876.043457	1150.074219
2875.399902	1138.241577
2874.756348	1087.570679
2874.112549	1013.614014
2873.468750	943.563293
2872.824707	873.534180
2872.180664	970.443054
2871.536621	877.144409
2870.892334	892.530640
2870.248047	900.152161
2869.603760	942.685486
2868.958984	930.902954
2868.314453	891.976929
2867.669678	969.389709
2867.024902	1031.270630
2866.379883	1019.481567
2865.734863	1007.696106
2865.089844	1038.540894
2864.444580	1022.881592
2863.799316	1065.336304
2863.153809	1018.690735
2862.508301	960.441406
2861.862549	917.698730
2861.216797	805.281433
2860.571045	712.253784
2859.925049	723.754211
2859.279053	642.377258
2858.632813	595.847839
2857.986572	518.384521
2857.340332	475.756653
2856.693848	429.274719
2856.047363	417.607819
2855.400635	363.417023
2854.753906	359.495056
2854.107178	332.384644
2853.460205	324.604340
2852.813232	258.870392
2852.166016	316.777252
2851.518799	320.590576
2850.871338	297.369141
2850.223877	281.877594
2849.576416	328.162628
2848.928711	293.370422
2848.281006	355.077423
2847.633301	374.316925
2846.985352	374.258759
2846.337158	397.347015
2845.688965	362.571014
2845.040771	401.080048
2844.392578	428.009308
2843.743896	466.496155
2843.095459	508.825806
2842.446777	585.829529
2841.798096	620.420349
2841.149170	658.853271
2840.500244	731.945374
2839.851074	797.311279
2839.202148	827.996460
2838.552734	850.970947
2837.903320	800.789307
2837.253906	846.856934
2836.604492	892.910278
2835.954834	827.352783
2835.304932	807.986328
2834.655029	788.625854
2834.005127	750.039612
2833.354980	646.087402
2832.704834	542.167603
2832.054688	522.860413
2831.404297	492.027344
2830.753906	434.300323
2830.103271	445.761017
2829.452637	341.953094
2828.801758	315.008881
2828.150879	291.914001
2827.500000	272.666687
2826.848877	238.066238
2826.197754	234.190002
2825.546387	222.637802
2824.895020	234.117096
2824.243408	230.243256
2823.591797	199.513092
2822.940186	191.809631
2822.288330	180.272980
2821.636475	138.059937
2820.984619	164.879242
2820.332520	149.518341
2819.680176	141.828644
2819.028076	130.308731
2818.375488	172.440567
2817.723145	126.436722
2817.070557	118.755386
2816.417725	137.888000
2815.764893	134.036896
2815.112061	122.528923
2814.458984	107.196106
2813.805908	118.662910
2813.152832	114.817177
2812.499512	110.972641
2811.845947	137.737671
2811.192383	122.414406
2810.538818	91.796501
2809.885010	80.309418
2809.231201	87.944221
2808.577393	91.753578
2807.923340	103.206688
2807.269287	99.368721
2806.614990	72.604286
2805.960693	110.799789
2805.306152	122.242767
2804.651611	99.306763
2803.997070	76.377907
2803.342285	87.820892
2802.687500	61.083271
2802.032471	72.525070
2801.377441	91.596329
2800.722412	114.477547
2800.067139	91.567757
2799.411621	106.812378
2798.756348	110.609848
2798.100586	95.338448
2797.445068	83.884743
2796.789307	110.558090
2796.133301	68.611557
2795.477539	80.034325
2794.821289	95.264084
2794.165283	72.389404
2793.509033	95.234352
2792.852539	95.219490
2792.196045	76.163704
2791.539551	95.189766
2790.882813	83.753922
2790.226074	83.740845
2789.569092	68.504539
2788.912109	45.662563
2788.255127	49.460056
2787.597900	95.100639
2786.940430	106.496086
2786.283203	95.070938
2785.625488	91.253853
2784.968018	95.041252
2784.310303	114.031685
2783.652588	102.612488
2782.994629	106.396332
2782.336426	102.580437
2781.678467	110.161774
2781.020264	98.750298
2780.361816	91.139885
2779.703369	60.750427
2779.044922	75.926170
2778.386230	87.301453
2777.727539	68.312202
2777.068604	72.096054
2776.409668	102.436272
2775.750732	75.866867
2775.091553	91.026009
2774.432373	83.427467
2773.772949	75.831291
2773.113525	117.520134
2772.453857	90.969109
2771.794189	64.426376
2771.134521	79.573082
2770.474609	83.349243
2769.814697	83.336212
2769.154541	98.472847
2768.494385	53.015549
2767.833984	87.083351
2767.173584	56.784607
2766.513184	94.626213
2765.852539	98.395866
2765.191895	68.109558
2764.531006	102.148361
2763.870117	64.305573
2763.209229	83.205956
2762.548096	71.848450
2761.886719	56.713585
2761.225586	71.825966
2760.563965	75.594452
2759.902588	90.699142
2759.240967	102.020569
2758.579102	83.114861
2757.917236	86.879211
2757.255371	86.865616
2756.593262	128.389938
2755.931152	79.287254
2755.269043	83.049835
2754.606689	147.201660
2753.944092	120.761940
2753.281494	162.248459
2752.618896	139.587280
2751.956055	86.756882
2751.293213	132.000671
2750.630371	105.584000
2749.967285	120.648529
2749.303955	79.163193
2748.640625	120.610741
2747.977295	131.897339
2747.313721	143.180389
2746.650146	135.623337
2745.986572	128.068634
2745.322754	135.580841
2744.658691	116.731873
2743.994873	124.243492
2743.330566	169.396408
2742.666504	135.495880
2742.002197	154.290573
2741.337646	109.115257
2740.673096	173.052246
2740.008545	120.365303
2739.343750	150.433044
2738.678955	142.888992
2738.013916	142.866592
2737.348877	157.880432
2736.683594	108.995590
2736.018311	127.767899
2735.353027	131.505157
2734.687500	154.024734
2734.021973	146.488358
2733.356201	146.465393
2732.690430	131.422684
2732.024658	165.191177
2731.358643	153.904007
2730.692383	157.633026
2730.026367	161.360886
2729.359863	161.335571
2728.693604	135.050461
2728.027100	142.530899
2727.360352	183.761002
2726.693604	176.232895
2726.026855	206.197632
2725.359863	168.680679
2724.692871	243.611633
2724.025635	243.573410
2723.358398	213.561615
2722.691162	224.766418
2722.023682	213.494583
2721.355957	239.675598
2720.688477	198.450195
2720.020508	232.112839
2719.352783	247.049072
2718.684814	258.238037
2718.016602	246.971512
2717.348389	239.449921
2716.680176	213.226593
2716.011719	187.011505
2715.343262	231.857849
2714.674561	209.387100
2714.005859	179.446472
2713.337158	149.515244
2712.668213	183.127396
2711.999023	164.415100
2711.329834	183.069870
2710.660645	164.363449
2709.991455	179.277405
2709.321777	197.921036
2708.652344	164.285995
2707.982666	160.526993
2707.312988	175.432159
2706.643066	97.032326
2705.972900	164.182755
2705.302979	164.156937
2704.632813	167.861389
2703.962402	149.186676
2703.291992	149.163223
2702.621582	156.596771
2701.950928	175.211685
2701.280273	123.001633
2700.609375	126.709030
2699.938477	186.307510
2699.267334	130.394760
2698.596191	93.124466
2697.925049	141.526932
2697.253662	104.266594
2696.582031	85.634094
2695.910645	81.897987
2695.239014	81.885109
2694.567139	130.251266
2693.895264	107.905502
2693.223145	122.769699
2692.551270	81.833595
2691.878906	119.011955
2691.206543	74.370766
2690.534180	100.384735
2689.861816	100.368942
2689.189209	118.937065
2688.516357	66.891571
2687.843506	100.321564
2687.170654	130.026001
2686.497559	104.004425
2685.824463	122.557350
2685.151123	137.391159
2684.477783	100.242630
2683.804199	89.090530
2683.130615	107.634109
2682.457031	126.171844
2681.783203	59.365639
2681.109375	118.712578
2680.435303	96.438782
2679.761230	92.714996
2679.086914	111.240471
2678.412598	126.052681
2677.738281	100.084892
2677.063721	148.250549
2676.389160	129.698807
2675.714355	133.383469
2675.039551	74.090248
2674.364502	107.413940
2673.689453	144.430466
2673.014404	111.082855
2672.339111	118.469704
2671.663574	99.943062
2670.988037	92.525291
2670.312500	88.810280
2669.636719	133.194427
2668.960938	73.985237
2668.285156	85.069611
2667.609131	103.546684
2666.932861	85.042793
2666.256592	99.817108
2665.580322	110.890411
2664.903809	147.830566
2664.227295	129.331345
2663.550781	118.227158
2662.874023	107.126465
2662.197021	118.189873
2661.520020	118.171234
2660.843018	114.460327
2660.165771	103.367218
2659.488525	95.968704
2658.811035	95.953568
2658.133545	154.977463
2657.455811	110.680717
2656.778076	121.729584
2656.100342	143.839539
2655.422363	136.441620
2654.744385	151.168213
2654.066162	110.593430
2653.387939	151.120499
2652.709473	125.299660
2652.031006	95.802261
2651.352539	103.155380
2650.673828	154.708649
2649.994873	106.805779
2649.316162	143.612686
2648.636963	114.135651
2647.958008	136.204910
2647.278809	106.738342
2646.599365	128.801804
2645.919922	121.422523
2645.240479	88.293343
2644.560791	106.670937
2643.880859	125.042732
2643.201172	95.605812
2642.520996	154.415756
2641.841064	143.363419
2641.160889	80.858894
2640.480469	106.569885
2639.800049	117.575775
2639.119629	124.904526
2638.438965	88.153969
2637.758301	110.175049
2637.077393	121.173409
