#Wave		#Intensity
3200.600830	37.888672
3200.007080	25.259113
3199.413086	0.000000
3198.819092	33.668640
3198.224854	29.455606
3197.630615	42.073078
3197.036377	16.826687
3196.442139	12.618108
3195.847656	16.821600
3195.252930	-8.409529
3194.658447	50.449543
3194.063721	16.813971
3193.468750	25.217144
3192.873779	37.819996
3192.278809	25.209517
3191.683838	54.612362
3191.088623	21.001577
3190.493164	41.996803
3189.897949	33.592361
3189.302490	50.380920
3188.706787	41.977749
3188.111328	83.942802
3187.515381	54.554565
3186.919678	58.742184
3186.323730	8.390471
3185.727783	20.973003
3185.131592	25.163795
3184.535400	46.126644
3183.939209	46.119667
3183.342773	37.728561
3182.746338	4.191428
3182.149902	4.190794
3181.553223	-4.190159
3180.956543	58.653355
3180.359619	12.566673
3179.762695	29.317801
3179.165771	33.500984
3178.568604	29.308924
3177.971436	33.490841
3177.374268	54.414379
3176.776855	41.850880
3176.179443	20.922272
3175.581787	41.838207
3174.984131	8.366374
3174.386475	20.912767
3173.788574	29.273441
3173.190674	16.725147
3172.592773	33.445229
3171.994629	25.080122
3171.396484	58.511421
3170.798340	25.072525
3170.199951	41.781212
3169.601563	29.242418
3169.002930	41.768555
3168.404297	33.409782
3167.805664	54.282669
3167.206787	20.874786
3166.607910	62.614868
3166.008789	16.694769
3165.409912	29.211416
3164.810547	66.758835
3164.211426	54.233334
3163.612061	16.684650
3163.012695	41.705303
3162.413086	58.378574
3161.813477	33.354130
3161.213623	41.686340
3160.614014	4.168002
3160.013916	45.841072
3159.414063	41.667385
3158.813965	54.159389
3158.213867	54.151176
3157.613525	12.494531
3157.013184	24.985271
3156.412598	37.472225
3155.812256	54.118336
3155.211426	45.785496
3154.610840	12.485059
3154.010010	45.771606
3153.409180	37.443817
3152.808105	16.639172
3152.207031	41.591618
3151.605957	20.792654
3151.004639	8.315800
3150.403320	45.729961
3149.801758	16.626554
3149.200195	4.156008
3148.598633	66.486038
3147.996826	8.309493
3147.395020	29.078814
3146.793213	49.841827
3146.191162	12.458566
3145.589111	33.217800
3144.986816	33.212757
3144.384766	74.717361
3143.782227	29.052341
3143.179932	12.449114
3142.577393	37.341671
3141.974609	16.593779
3141.371826	16.591259
3140.769043	16.588739
3140.166260	58.051773
3139.563232	16.583702
3138.960205	41.452961
3138.356934	53.880665
3137.753662	8.288074
3137.150391	24.860447
3136.546875	33.142227
3135.943359	33.137196
3135.339600	33.132160
3134.735840	37.268017
3134.132080	45.542881
3133.528076	28.977430
3132.924072	33.112034
3132.320068	33.107002
3131.715820	70.341690
3131.111572	-24.822706
3130.507080	53.774357
3129.902588	53.766186
3129.298096	45.487549
3128.693604	20.673018
3128.088867	37.205776
3127.483887	45.466812
3126.878906	45.459904
3126.273926	16.528360
3125.668945	8.262924
3125.063721	49.570007
3124.458252	28.911442
3123.853027	49.554939
3123.247559	53.676353
3122.641846	24.769936
3122.036133	45.404640
3121.430420	37.143604
3120.824707	45.390835
3120.218750	8.251624
3119.612549	28.876291
3119.006592	24.747341
3118.400391	37.115368
3117.793945	28.863117
3117.187500	37.104076
3116.581055	37.098431
3115.974609	41.214211
3115.367920	41.207939
3114.760986	20.600836
3114.154297	57.673561
3113.547363	20.594566
3112.940186	20.591433
3112.333008	4.117660
3111.725830	12.351100
3111.118408	37.047661
3110.510986	37.042023
3109.903564	16.460615
3109.295898	28.801691
3108.688232	32.911209
3108.080566	41.132748
3107.472656	32.901188
3106.864746	24.672134
3106.256592	61.670948
3105.648438	0.000000
3105.040039	41.101448
3104.431885	45.204708
3103.823486	53.415607
3103.214844	20.541336
3102.606201	28.753492
3101.997559	28.749113
3101.388672	12.319172
3100.779785	45.163418
3100.170898	41.051399
3099.561768	24.627087
3098.952637	24.623335
3098.343262	24.619583
3097.733887	36.923748
3097.124512	53.326180
3096.514893	41.013889
3095.905273	45.108402
3095.295410	28.700974
3094.685791	32.796112
3094.075684	36.890007
3093.465820	24.589588
3092.855713	61.464603
3092.245361	24.582094
3091.635254	32.771130
3091.024658	16.383068
3090.414307	45.046566
3089.803711	8.189036
3089.193115	61.408409
3088.582275	28.652889
3087.971436	32.741165
3087.360596	16.368088
3086.749512	53.188171
3086.138428	20.453869
3085.527100	-12.270451
3084.915771	16.358105
3084.304443	12.266707
3083.692871	28.617952
3083.081299	44.964211
3082.469482	24.522192
3081.857910	49.036903
3081.245850	8.171570
3080.634033	16.340647
3080.021973	24.507231
3079.409668	20.419577
3078.797607	20.416462
3078.185059	12.248008
3077.572754	36.738415
3076.960205	61.221352
3076.347656	57.131207
3075.734863	40.801777
3075.122070	12.238665
3074.509033	53.026119
3073.895996	24.469858
3073.282959	48.932247
3072.669922	53.001842
3072.056641	52.993752
3071.443115	24.454920
3070.829834	16.300791
3070.216064	52.969482
3069.602539	12.221861
3068.988770	28.513319
3068.375000	32.581676
3067.760986	28.504612
3067.146973	28.500259
3066.532715	61.062656
3065.918701	28.491554
3065.304199	44.765602
3064.689941	20.344894
3064.075439	24.410143
3063.460693	28.474150
3062.846191	-8.134229
3062.231445	52.864407
3061.616455	40.658718
3061.001465	20.326252
3060.386475	56.904808
3059.771240	48.768097
3059.156006	28.443710
3058.540771	65.004257
3057.925293	60.932178
3057.309814	40.615246
3056.694092	28.426325
3056.078369	40.602829
3055.462646	52.775608
3054.846680	32.472332
3054.230713	44.642632
3053.614502	28.404606
3052.998291	24.343082
3052.382080	20.282801
3051.765625	56.783157
3051.149170	32.442558
3050.532715	64.875191
3049.916016	16.216318
3049.299316	24.320757
3048.682373	36.475555
3048.065430	12.156659
3047.448486	16.206400
3046.831299	8.101960
3046.214111	60.755405
3045.596680	68.845596
3044.979248	32.392971
3044.361816	4.048502
3043.744141	56.670353
3043.126465	8.094526
3042.508545	32.373150
3041.890869	16.184097
3041.272705	20.227026
3040.654785	52.582222
3040.036621	52.574173
3039.418213	56.609676
3038.799805	40.429295
3038.181396	36.380795
3037.562988	28.291842
3036.944336	56.575020
3036.325439	44.444996
3035.706543	32.318687
3035.087646	36.352955
3034.468750	32.308792
3033.849609	92.873550
3033.230469	56.523067
3032.611084	52.477669
3031.991699	44.397381
3031.372070	48.426090
3030.752441	68.593117
3030.132813	56.479801
3029.513184	32.269230
3028.893066	28.231249
3028.273193	28.226925
3027.653076	48.381599
3027.032959	60.467735
3026.412598	40.305649
3025.792480	28.209631
3025.171875	36.263969
3024.551270	56.401974
3023.930664	44.309044
3023.310059	40.274776
3022.689209	36.241745
3022.068115	44.288677
3021.447266	44.281887
3020.826172	56.350128
3020.204834	68.414665
3019.583496	32.190201
3018.962158	36.208427
3018.340576	44.247959
3017.718994	52.285023
3017.097412	56.298317
3016.475586	40.206917
3015.853760	68.341278
3015.231689	72.350258
3014.609619	32.150738
3013.987549	36.164036
3013.365234	76.334587
3012.742920	32.135948
3012.120361	28.114641
3011.497803	76.299469
3010.875244	44.166599
3010.252441	24.087177
3009.629639	56.194790
3009.006836	20.066488
3008.383789	44.139500
3007.760498	12.036199
3007.137451	52.148857
3006.514160	60.162525
3005.890625	60.153294
3005.267090	40.096043
3004.643555	32.071911
3004.019775	72.150726
3003.395996	60.116375
3002.772217	32.057144
3002.148193	56.091393
3001.524170	44.065041
3000.899902	36.047680
3000.275635	64.074928
2999.651367	44.044750
2999.026855	32.027626
2998.402344	40.028385
2997.777588	52.028912
2997.152832	48.019314
2996.528076	48.011940
2995.903076	52.004944
2995.278076	31.998127
2994.653076	67.985580
2994.027832	47.982449
2993.402344	39.979233
2992.777100	63.956944
2992.151367	39.966949
2991.525879	71.929459
2990.900146	67.922935
2990.274414	79.897057
2989.648438	63.907825
2989.022461	51.917130
2988.396240	87.846260
2987.770264	95.817551
2987.143799	67.860336
2986.517578	55.876392
2985.891113	39.905575
2985.264404	63.839108
2984.637695	111.701263
2984.010986	75.785637
2983.384033	39.881042
2982.757080	15.949965
2982.130127	63.790051
2981.502930	91.684097
2980.875732	63.770435
2980.248291	83.685829
2979.620850	91.641808
2978.993408	59.757206
2978.365723	95.596825
2977.738037	99.564713
2977.110107	63.711617
2976.482178	59.720451
2975.854248	139.326294
2975.226074	115.424019
2974.597900	75.611000
2973.969482	127.325249
2973.341309	103.435852
2972.712646	119.330696
2972.083984	131.243561
2971.455322	178.940964
2970.826660	143.130737
2970.197754	131.182983
2969.568604	174.883728
2968.939697	202.674942
2968.310547	139.069244
2967.681152	230.422119
2967.051758	198.609192
2966.422363	214.464905
2965.792725	222.373810
2965.163086	293.805878
2964.533203	265.972473
2963.903564	297.684540
2963.273438	289.701660
2962.643311	321.400299
2962.013184	273.743256
2961.383057	337.168030
2960.752686	309.353607
2960.122314	372.753326
2959.491699	364.766235
2958.861084	459.851776
2958.230225	435.999176
2957.599609	428.005981
2956.968506	416.052826
2956.337646	368.447144
2955.706299	348.584442
2955.075195	356.451904
2954.443848	328.677216
2953.812500	336.545288
2953.180908	332.534668
2952.549316	340.399689
2951.917725	328.474640
2951.285889	375.907013
2950.653809	356.067566
2950.021973	328.322784
2949.389893	316.406921
2948.757568	371.720825
2948.125244	324.217102
2947.492920	351.839935
2946.860352	300.401245
2946.227783	335.923279
2945.595215	272.648621
2944.962402	276.557404
2944.329590	244.913071
2943.696533	256.724091
2943.063477	221.143585
2942.430420	181.625641
2941.797119	240.814240
2941.163574	205.252609
2940.530273	153.915710
2939.896729	205.189285
2939.262939	197.266953
2938.629150	220.904907
2937.995361	177.485474
2937.361328	173.514587
2936.727295	149.830383
2936.093262	216.826294
2935.458984	193.142715
2934.824707	181.289658
2934.190186	204.904510
2933.555664	204.872894
2932.921143	204.841263
2932.286377	224.502884
2931.651367	259.910583
2931.016602	259.870453
2930.381592	200.777985
2929.746338	326.705902
2929.111084	310.913025
2928.475830	271.515015
2927.840332	310.817017
2927.204834	318.636597
2926.569336	330.386902
2925.933594	412.919861
2925.297607	389.264313
2924.661865	385.272827
2924.025879	385.213318
2923.389648	373.363403
2922.753418	432.248749
2922.117188	412.537323
2921.480713	412.473602
2920.844238	451.687012
2920.207764	451.617218
2919.571045	404.429443
2918.934082	404.366943
2918.297363	380.752747
2917.660156	404.241974
2917.023193	384.559143
2916.385986	384.499725
2915.748779	364.825989
2915.111328	396.147614
2914.473877	376.478149
2913.836182	403.867249
2913.198486	399.884369
2912.560791	415.501862
2911.922852	388.003082
2911.284912	384.024475
2910.646729	360.457031
2910.008545	360.401276
2909.370361	411.263947
2908.731934	466.027069
2908.093506	516.857605
2907.455078	516.777710
2906.816406	555.841553
2906.177490	528.359131
2905.538574	532.190613
2904.899658	582.971558
2904.260498	637.648743
2903.621338	582.791199
2902.982178	672.648193
2902.342773	613.891968
2901.703369	539.515869
2901.063721	613.702026
2900.424072	566.707153
2899.784424	535.357666
2899.144531	578.253113
2898.504639	484.407349
2897.864502	539.015076
2897.224365	535.026306
2896.583984	472.468353
2895.943848	499.723877
2895.303223	487.936035
2894.662842	468.346069
2894.021973	511.198639
2893.381348	511.119507
2892.740479	483.732849
2892.099609	499.259827
2891.458496	526.481567
2890.817383	518.601501
2890.176025	538.014465
2889.534668	596.401917
2888.893311	615.796753
2888.251709	596.217163
2887.610107	584.436096
2886.968262	560.971741
2886.326416	654.365601
2885.684570	638.686523
2885.042480	708.676453
2884.400391	728.032776
2883.758057	794.094482
2883.115723	801.755493
2882.473389	778.282776
2881.830811	774.271301
2881.188232	863.626099
2880.545410	832.375427
2879.902588	789.467346
2879.259766	742.684204
2878.616699	863.090759
2877.973633	726.905212
2877.330322	687.926575
2876.687012	695.591919
2876.043457	707.140198
2875.399902	710.915344
2874.756348	637.005676
2874.112549	598.071106
2873.468750	578.563477
2872.824707	644.474121
2872.180664	582.265808
2871.536621	551.126160
2870.892334	570.443481
2870.248047	578.114929
2869.603760	543.110962
2868.958984	612.844482
2868.314453	558.455139
2867.669678	570.001160
2867.024902	639.697937
2866.379883	624.093262
2865.734863	639.499451
2865.089844	643.275391
2864.444580	596.680908
2863.799316	608.210144
2863.153809	581.002319
2862.508301	592.530396
2861.862549	561.461243
2861.216797	495.557831
2860.571045	510.964661
2859.925049	464.441223
2859.279053	406.322968
2858.632813	355.961060
2857.986572	290.140564
2857.340332	363.586395
2856.693848	274.581116
2856.047363	290.005432
2855.400635	251.299011
2854.753906	258.991058
2854.107178	235.761200
2853.460205	243.453262
2852.813232	193.186859
2852.166016	204.746262
2851.518799	196.989380
2850.871338	189.234909
2850.223877	208.512192
2849.576416	200.758316
2848.928711	243.188629
2848.281006	208.415009
2847.633301	227.677307
2846.985352	212.208572
2846.337158	216.033340
2845.688965	269.999695
2845.040771	269.957733
2844.392578	300.763275
2843.743896	319.993225
2843.095459	327.652985
2842.446777	308.331329
2841.798096	389.207794
2841.149170	389.147278
2840.500244	419.905518
2839.851074	466.061157
2839.202148	519.904724
2838.552734	504.421692
2837.903320	496.643372
2837.253906	488.867432
2836.604492	534.976379
2835.954834	457.930145
2835.304932	423.230927
2834.655029	465.481598
2834.005127	430.791962
2833.354980	346.118256
2832.704834	353.754730
2832.054688	338.321442
2831.404297	276.765381
2830.753906	276.722321
2830.103271	230.566055
2829.452637	261.267517
2828.801758	203.603287
2828.150879	180.525757
2827.500000	172.816910
2826.848877	161.270676
2826.197754	168.923935
2825.546387	115.157478
2824.895020	138.167465
2824.243408	172.682449
2823.591797	138.124451
2822.940186	130.430557
2822.288330	107.396675
2821.636475	118.884941
2820.984619	107.363228
2820.332520	130.349335
2819.680176	107.329788
2819.028076	103.480461
2818.375488	103.464348
2817.723145	91.953979
2817.070557	122.586212
2816.417725	91.925331
2815.764893	91.911011
2815.112061	107.212807
2814.458984	84.225510
2813.805908	72.728882
2813.152832	76.544785
2812.499512	68.879570
2811.845947	107.129303
2811.192383	95.636261
2810.538818	103.271057
2809.885010	99.430702
2809.231201	72.649574
2808.577393	84.107445
2807.923340	57.337048
2807.269287	38.218739
2806.614990	80.246841
2805.960693	68.772278
2805.306152	114.602600
2804.651611	76.389816
2803.997070	106.929070
2803.342285	57.274498
2802.687500	57.265564
2802.032471	53.439526
2801.377441	87.779816
2800.722412	87.766121
2800.067139	80.121788
2799.411621	45.776733
2798.756348	41.955460
2798.100586	76.270752
2797.445068	91.510628
2796.789307	76.246956
2796.133301	91.482071
2795.477539	80.034325
2794.821289	68.590141
2794.165283	57.149532
2793.509033	91.424980
2792.852539	76.175591
2792.196045	41.890038
2791.539551	98.997360
2790.882813	87.560921
2790.226074	76.128044
2789.569092	64.698730
2788.912109	68.493843
2788.255127	68.483154
2787.597900	41.844280
2786.940430	45.641178
2786.283203	26.619864
2785.625488	60.835899
2784.968018	95.041252
2784.310303	68.419014
2783.652588	68.408325
2782.994629	60.797901
2782.336426	91.182610
2781.678467	64.577591
2781.020264	113.942650
2780.361816	68.354912
2779.703369	64.547333
2779.044922	26.574160
2778.386230	94.892883
2777.727539	91.082932
2777.068604	79.685112
2776.409668	56.909042
2775.750732	49.313461
2775.091553	53.098503
2774.432373	83.427467
2773.772949	75.831291
2773.113525	98.565269
2772.453857	37.903793
2771.794189	49.267227
2771.134521	49.259525
2770.474609	75.772041
2769.814697	83.336212
2769.154541	68.173508
2768.494385	37.868248
2767.833984	56.793491
2767.173584	105.997932
2766.513184	75.700974
2765.852539	90.826958
2765.191895	49.190239
2764.531006	60.532360
2763.870117	83.218979
2763.209229	56.731335
2762.548096	64.285454
2761.886719	90.741737
2761.225586	71.825966
2760.563965	60.475559
2759.902588	90.699142
2759.240967	117.134727
2758.579102	68.003067
2757.917236	71.769783
2757.255371	37.767658
2756.593262	49.090271
2755.931152	105.716339
2755.269043	64.174873
2754.606689	94.360039
2753.944092	128.309570
2753.281494	109.423378
2752.618896	64.134697
2751.956055	79.212807
2751.293213	101.829086
2750.630371	71.646286
2749.967285	49.013466
2749.303955	71.623848
2748.640625	94.227142
2747.977295	71.601410
2747.313721	79.126007
2746.650146	90.415550
2745.986572	56.500870
2745.322754	101.685631
2744.658691	67.779800
2743.994873	90.358902
2743.330566	109.166573
2742.666504	135.495880
2742.002197	79.026878
2741.337646	90.302284
2740.673096	94.050133
2740.008545	112.842468
2739.343750	82.738174
2738.678955	120.327576
2738.013916	109.029770
2737.348877	116.530792
2736.683594	93.961716
2736.018311	86.431221
2735.353027	105.204124
2734.687500	86.404121
2734.021973	101.415024
2733.356201	78.865982
2732.690430	101.383217
2732.024658	131.402069
2731.358643	71.321365
2730.692383	105.088692
2730.026367	120.082520
2729.359863	142.575623
2728.693604	105.039246
2728.027100	123.776833
2727.360352	142.508530
2726.693604	153.735077
2726.026855	112.471436
2725.359863	112.453789
2724.692871	149.914856
2724.025635	149.891327
2723.358398	138.627716
2722.691162	153.590393
2722.023682	161.057312
2721.355957	187.246552
2720.688477	168.495453
2720.020508	153.493973
2719.352783	190.901550
2718.684814	172.158691
2718.016602	153.421692
2717.348389	160.880417
2716.680176	149.632706
2716.011719	164.570129
2715.343262	153.325348
2714.674561	168.257492
2714.005859	130.846390
2713.337158	130.825836
2712.668213	119.593407
2711.999023	130.784744
2711.329834	153.180908
2710.660645	160.627914
2709.991455	126.988167
2709.321777	156.843094
2708.652344	119.480721
2707.982666	141.861053
2707.312988	89.582382
2706.643066	97.032326
2705.972900	126.868484
2705.302979	123.117706
2704.632813	108.177345
2703.962402	78.323006
2703.291992	96.956100
2702.621582	119.311821
2701.950928	96.925613
2701.280273	119.274315
2700.609375	52.174309
2699.938477	126.689110
2699.267334	74.511284
2698.596191	63.324635
2697.925049	40.968319
2697.253662	81.923752
2696.582031	67.017982
2695.910645	63.284809
2695.239014	74.441002
2694.567139	70.707832
2693.895264	100.463745
2693.223145	111.608818
2692.551270	59.515339
2691.878906	111.573708
2691.206543	92.963455
2690.534180	63.205204
2689.861816	85.499466
2689.189209	66.902100
2688.516357	89.188759
2687.843506	111.468399
2687.170654	81.730629
2686.497559	70.574432
2685.824463	77.991043
2685.151123	103.971687
2684.477783	122.518768
2683.804199	103.938957
2683.130615	77.941940
2682.457031	111.328102
2681.783203	81.627754
2681.109375	96.453972
2680.435303	89.020416
2679.761230	44.503197
2679.086914	51.912220
2678.412598	107.515518
2677.738281	103.791740
2677.063721	118.600441
2676.389160	111.170403
2675.714355	118.563080
2675.039551	88.908302
2674.364502	88.894295
2673.689453	85.176941
2673.014404	92.569046
2672.339111	114.767525
2671.663574	62.927113
2670.988037	59.216187
2670.312500	81.409424
2669.636719	103.595665
2668.960938	107.278595
2668.285156	88.768288
2667.609131	92.452393
2666.932861	88.740303
2666.256592	88.726318
2665.580322	88.712326
2664.903809	103.481400
2664.227295	121.940987
2663.550781	59.113579
2662.874023	62.798275
2662.197021	107.109573
2661.520020	110.785530
2660.843018	84.922180
2660.165771	77.525414
2659.488525	77.513184
2658.811035	81.191475
2658.133545	118.078064
2657.455811	106.991364
2656.778076	88.530609
2656.100342	66.387482
2655.422363	110.628342
2654.744385	103.236824
2654.066162	99.534088
2653.387939	117.947708
2652.709473	114.243805
2652.031006	147.388092
2651.352539	114.207748
2650.673828	84.721405
2649.994873	103.122818
2649.316162	106.788918
2648.636963	95.726669
2647.958008	103.073990
2647.278809	66.251389
2646.599365	110.401543
2645.919922	66.230469
2645.240479	73.577782
2644.560791	80.922783
2643.880859	99.298637
2643.201172	110.314392
2642.520996	77.207878
2641.841064	77.195686
2641.160889	135.989960
2640.480469	58.797176
2639.800049	84.507591
2639.119629	69.799591
2638.438965	80.807808
2637.758301	58.760029
2637.077393	91.798035
2636.396484	102.797554
2635.715332	73.415222
2635.034180	95.424698
2634.353027	77.061615
2633.671631	62.373352
2632.989990	80.705696
