#Wave		#Intensity
3200.600830	16.839409
3200.007080	29.468966
3199.413086	25.255297
3198.819092	0.000000
3198.224854	21.039719
3197.630615	58.902306
3197.036377	37.860046
3196.442139	16.824142
3195.847656	21.027000
3195.252930	16.819057
3194.658447	29.428900
3194.063721	58.848900
3193.468750	29.420000
3192.873779	37.819996
3192.278809	42.015862
3191.683838	25.205706
3191.088623	33.602524
3190.493164	71.394562
3189.897949	16.796181
3189.302490	12.595230
3188.706787	20.988874
3188.111328	25.182840
3187.515381	25.179029
3186.919678	41.958702
3186.323730	54.538059
3185.727783	25.167604
3185.131592	20.969830
3184.535400	46.126644
3183.939209	16.770788
3183.342773	37.728561
3182.746338	62.871422
3182.149902	4.190794
3181.553223	25.140957
3180.956543	12.568576
3180.359619	20.944456
3179.762695	-12.564772
3179.165771	29.313362
3178.568604	50.243870
3177.971436	16.745420
3177.374268	20.928608
3176.776855	0.000000
3176.179443	4.184454
3175.581787	33.470566
3174.984131	62.747807
3174.386475	41.825535
3173.788574	71.092644
3173.190674	8.362574
3172.592773	25.083921
3171.994629	16.720081
3171.396484	29.255711
3170.798340	8.357509
3170.199951	45.959332
3169.601563	41.774883
3169.002930	16.707422
3168.404297	54.290894
3167.805664	29.229130
3167.206787	33.399658
3166.607910	29.220272
3166.008789	20.868460
3165.409912	12.519178
3164.810547	-4.172427
3164.211426	41.717949
3163.612061	41.711624
3163.012695	41.705303
3162.413086	16.679592
3161.813477	41.692661
3161.213623	0.000000
3160.614014	25.008013
3160.013916	8.334741
3159.414063	-4.166739
3158.813965	4.166107
3158.213867	20.827375
3157.613525	41.648434
3157.013184	0.000000
3156.412598	33.308643
3155.812256	29.140644
3155.211426	41.623177
3154.610840	8.323373
3154.010010	37.449497
3153.409180	0.000000
3152.808105	4.159793
3152.207031	45.750782
3151.605957	29.109716
3151.004639	24.947401
3150.403320	41.572693
3149.801758	24.939831
3149.200195	29.092054
3148.598633	29.087641
3147.996826	62.321198
3147.395020	16.616465
3146.793213	0.000000
3146.191162	4.152855
3145.589111	37.370026
3144.986816	12.454784
3144.384766	16.603859
3143.782227	24.902008
3143.179932	41.497044
3142.577393	24.894447
3141.974609	45.632893
3141.371826	29.034704
3140.769043	49.766220
3140.166260	24.879332
3139.563232	29.021481
3138.960205	37.307667
3138.356934	41.446667
3137.753662	33.152298
3137.150391	53.864300
3136.546875	24.856670
3135.943359	-4.142149
3135.339600	41.415199
3134.735840	45.549801
3134.132080	24.841572
3133.528076	62.094494
3132.924072	49.668049
3132.320068	28.968626
3131.715820	37.239716
3131.111572	57.919647
3130.507080	24.818933
3129.902588	33.086884
3129.298096	33.081856
3128.693604	-4.134604
3128.088867	16.535900
3127.483887	49.600159
3126.878906	16.530874
3126.273926	57.849262
3125.668945	66.103394
3125.063721	49.570007
3124.458252	20.651030
3123.853027	41.295780
3123.247559	57.805302
3122.641846	70.181480
3122.036133	0.000000
3121.430420	41.270672
3120.824707	49.517273
3120.218750	28.880684
3119.612549	61.877766
3119.006592	37.121014
3118.400391	12.371789
3117.793945	49.479630
3117.187500	37.104076
3116.581055	28.854336
3115.974609	28.849947
3115.367920	61.811909
3114.760986	78.283173
3114.154297	32.956322
3113.547363	28.832394
3112.940186	12.354859
3112.333008	49.411919
3111.725830	28.819233
3111.118408	16.465626
3110.510986	69.968262
3109.903564	53.496998
3109.295898	41.145275
3108.688232	49.366814
3108.080566	53.472572
3107.472656	32.901188
3106.864746	24.672134
3106.256592	20.556982
3105.648438	49.329247
3105.040039	32.881157
3104.431885	32.876152
3103.823486	41.088932
3103.214844	49.299210
3102.606201	20.538208
3101.997559	41.070160
3101.388672	36.957516
3100.779785	36.951885
3100.170898	49.261677
3099.561768	53.358688
3098.952637	53.350559
3098.343262	41.032639
3097.733887	24.615833
3097.124512	41.020138
3096.514893	20.506945
3095.905273	69.712982
3095.295410	49.201668
3094.685791	16.398056
3094.075684	24.593336
3093.465820	32.786118
3092.855713	40.976402
3092.245361	36.873142
3091.635254	61.445869
3091.024658	40.957668
3090.414307	32.761139
3089.803711	36.850662
3089.193115	61.408409
3088.582275	61.399048
3087.971436	24.555874
3087.360596	53.196281
3086.749512	49.096771
3086.138428	24.544643
3085.527100	40.901501
3084.915771	32.716209
3084.304443	65.422440
3083.692871	36.794510
3083.081299	40.876553
3082.469482	32.696255
3081.857910	40.864086
3081.245850	40.857853
3080.634033	44.936779
3080.021973	28.591770
3079.409668	32.671322
3078.797607	28.583046
3078.185059	53.074699
3077.572754	36.738415
3076.960205	65.302773
3076.347656	61.212009
3075.734863	57.122490
3075.122070	28.556885
3074.509033	53.026119
3073.895996	16.313240
3073.282959	53.009933
3072.669922	57.078907
3072.056641	73.375961
3071.443115	69.288940
3070.829834	69.278366
3070.216064	61.118633
3069.602539	65.183258
3068.988770	57.026638
3068.375000	40.727093
3067.760986	28.504612
3067.146973	28.500259
3066.532715	48.850124
3065.918701	61.053329
3065.304199	20.348001
3064.689941	36.620808
3064.075439	36.615215
3063.460693	36.609623
3062.846191	48.805370
3062.231445	65.063889
3061.616455	12.197615
3061.001465	52.848255
3060.386475	60.969440
3059.771240	36.576073
3059.156006	28.443710
3058.540771	32.502129
3057.925293	36.559307
3057.309814	48.738293
3056.694092	40.609035
3056.078369	77.145378
3055.462646	56.835274
3054.846680	44.649460
3054.230713	68.993156
3053.614502	93.329414
3052.998291	44.628983
3052.382080	44.622162
3051.765625	32.447517
3051.149170	48.663834
3050.532715	40.546993
3049.916016	28.378555
3049.299316	68.908813
3048.682373	32.422714
3048.065430	56.731075
3047.448486	20.257999
3046.831299	56.713722
3046.214111	20.251802
3045.596680	76.945076
3044.979248	72.884178
3044.361816	36.436516
3043.744141	32.383057
3043.126465	40.472630
3042.508545	24.279861
3041.890869	28.322170
3041.272705	48.544865
3040.654785	60.671791
3040.036621	60.662506
3039.418213	48.522579
3038.799805	32.343433
3038.181396	48.507725
3037.562988	40.416916
3036.944336	36.369656
3036.325439	28.283180
3035.706543	64.637375
3035.087646	72.705910
3034.468750	68.656181
3033.849609	64.607689
3033.230469	52.485706
3032.611084	48.440926
3031.991699	0.000000
3031.372070	76.674644
3030.752441	80.697792
3030.132813	64.548340
3029.513184	48.403843
3028.893066	56.462498
3028.273193	100.810448
3027.653076	56.445202
3027.032959	48.374187
3026.412598	36.275082
3025.792480	44.329418
3025.171875	72.527939
3024.551270	52.373260
3023.930664	60.421425
3023.310059	84.577034
3022.689209	44.295464
3022.068115	80.524864
3021.447266	80.512527
3020.826172	84.525192
3020.204834	76.463455
3019.583496	64.380402
3018.962158	52.301060
3018.340576	64.360664
3017.718994	48.263100
3017.097412	56.298317
3016.475586	56.289684
3015.853760	52.260979
3015.231689	56.272423
3014.609619	68.320320
3013.987549	48.218712
3013.365234	72.316978
3012.742920	60.254902
3012.120361	60.245663
3011.497803	84.330986
3010.875244	76.287758
3010.252441	56.203411
3009.629639	36.125221
3009.006836	60.199467
3008.383789	52.164864
3007.760498	40.120663
3007.137451	48.137409
3006.514160	24.065010
3005.890625	68.173737
3005.267090	96.230499
3004.643555	52.116856
3004.019775	72.150726
3003.395996	56.108616
3002.772217	72.128578
3002.148193	56.091393
3001.524170	52.076866
3000.899902	80.105957
3000.275635	88.103027
2999.651367	68.069160
2999.026855	44.037987
2998.402344	92.065292
2997.777588	76.042259
2997.152832	76.030579
2996.528076	64.015915
2995.903076	64.006088
2995.278076	95.994385
2994.653076	67.985580
2994.027832	103.961967
2993.402344	79.958466
2992.777100	67.954254
2992.151367	55.953728
2991.525879	111.890266
2990.900146	103.882141
2990.274414	91.881622
2989.648438	63.907825
2989.022461	71.885254
2988.396240	91.839272
2987.770264	115.779541
2987.143799	103.786400
2986.517578	87.805763
2985.891113	111.735611
2985.264404	67.829048
2984.637695	95.743942
2984.010986	87.751785
2983.384033	107.678818
2982.757080	143.549683
2982.130127	107.645714
2981.502930	131.546753
2980.875732	115.583916
2980.248291	147.446457
2979.620850	123.517227
2978.993408	123.498230
2978.365723	119.496033
2977.738037	123.460243
2977.110107	127.423233
2976.482178	135.366364
2975.854248	167.191544
2975.226074	151.245270
2974.597900	151.222000
2973.969482	167.114395
2973.341309	163.110382
2972.712646	194.906799
2972.083984	167.037262
2971.455322	198.823288
2970.826660	226.623672
2970.197754	218.638306
2969.568604	238.477814
2968.939697	266.259247
2968.310547	250.324631
2967.681152	262.204498
2967.051758	285.997223
2966.422363	266.095337
2965.792725	309.734955
2965.163086	317.627960
2964.533203	361.246185
2963.903564	381.036194
2963.273438	333.355347
2962.643311	361.079346
2962.013184	396.729370
2961.383057	412.535004
2960.752686	396.607178
2960.122314	396.546112
2959.491699	436.133545
2958.861084	408.316681
2958.230225	491.489990
2957.599609	459.710114
2956.968506	479.451355
2956.337646	499.186462
2955.706299	499.109558
2955.075195	439.623993
2954.443848	506.875702
2953.812500	483.041443
2953.180908	530.471985
2952.549316	534.348328
2951.917725	546.138611
2951.285889	585.623596
2950.653809	625.096375
2950.021973	577.531677
2949.389893	628.858765
2948.757568	569.444641
2948.125244	632.618774
2947.492920	553.456055
2946.860352	533.607483
2946.227783	576.997681
2945.595215	489.977234
2944.962402	454.344299
2944.329590	470.075073
2943.696533	418.657776
2943.063477	426.491180
2942.430420	347.457733
2941.797119	315.821960
2941.163574	288.143066
2940.530273	315.724518
2939.896729	319.621765
2939.262939	311.681793
2938.629150	327.412628
2937.995361	319.473877
2937.361328	299.707001
2936.727295	319.375275
2936.093262	354.806671
2935.458984	299.568268
2934.824707	346.815002
2934.190186	378.285248
2933.555664	354.587677
2932.921143	425.439545
2932.286377	433.251190
2931.651367	393.803894
2931.016602	417.367706
2930.381592	519.660706
2929.746338	456.601013
2929.111084	480.144135
2928.475830	554.835022
2927.840332	566.552551
2927.204834	637.273193
2926.569336	629.308411
2925.933594	660.671753
2925.297607	668.433655
2924.661865	778.408386
2924.025879	790.080383
2923.389648	774.237793
2922.753418	746.611450
2922.117188	711.135742
2921.480713	773.879028
2920.844238	710.916077
2920.207764	718.660461
2919.571045	738.181885
2918.934082	753.771423
2918.297363	781.131897
2917.660156	722.140991
2917.023193	690.636841
2916.385986	721.917847
2915.748779	729.651978
2915.111328	753.072693
2914.473877	674.523376
2913.836182	725.392639
2913.198486	733.121338
2912.560791	701.649353
2911.922852	689.783264
2911.284912	728.862732
2910.646729	697.405945
2910.008545	740.389587
2909.370361	795.110291
2908.731934	794.987305
2908.093506	877.091736
2907.455078	798.656433
2906.816406	884.649170
2906.177490	1017.580566
2905.538574	943.073059
2904.899658	985.965332
2904.260498	1060.139893
2903.621338	1118.646240
2902.982178	1122.383911
2902.342773	1169.131836
2901.703369	1122.036621
2901.063721	1149.225464
2900.424072	1070.881104
2899.784424	1137.146606
2899.144531	1086.178101
2898.504639	992.253784
2897.864502	1113.183350
2897.224365	1030.999634
2896.583984	1097.219849
2895.943848	991.639526
2895.303223	975.872070
2894.662842	948.400818
2894.021973	948.253967
2893.381348	994.927246
2892.740479	951.861450
2892.099609	998.519653
2891.458496	998.364990
2890.817383	1037.203003
2890.176025	1029.244995
2889.534668	1075.862305
2888.893311	1048.413452
2888.251709	1196.331177
2887.610107	1192.249634
2886.968262	1219.334351
2886.326416	1304.836182
2885.684570	1218.956543
2885.042480	1277.175171
2884.400391	1366.521362
2883.758057	1405.235840
2883.115723	1401.126099
2882.473389	1326.972046
2881.830811	1435.709106
2881.188232	1501.620117
2880.545410	1443.043335
2879.902588	1415.596680
2879.259766	1415.377197
2878.616699	1415.157837
2877.973633	1411.051270
2877.330322	1352.533691
2876.687012	1266.832153
2876.043457	1286.062744
2875.399902	1130.471924
2874.756348	1223.516968
2874.112549	1184.491455
2873.468750	1102.765259
2872.824707	1129.770874
2872.180664	1001.497192
2871.536621	1036.272461
2870.892334	1028.350586
2870.248047	1051.470825
2869.603760	1000.875977
2868.958984	1055.023315
2868.314453	1058.737793
2867.669678	1128.369629
2867.024902	1174.718018
2866.379883	1077.626953
2865.734863	1050.329346
2865.089844	1112.168823
2864.444580	1166.239990
2863.799316	1119.571533
2863.153809	1123.271118
2862.508301	1123.096802
2861.862549	1033.863159
2861.216797	944.657104
2860.571045	847.736816
2859.925049	828.253479
2859.279053	785.557739
2858.632813	634.539246
2857.986572	634.440735
2857.340332	545.379578
2856.693848	502.754150
2856.047363	529.743286
2855.400635	398.212280
2854.753906	402.015961
2854.107178	413.548340
2853.460205	343.926025
2852.813232	390.237457
2852.166016	378.587433
2851.518799	378.528625
2850.871338	335.988495
2850.223877	405.440369
2849.576416	389.934418
2848.928711	358.992737
2848.281006	439.987244
2847.633301	409.047363
2846.985352	497.725555
2846.337158	428.208923
2845.688965	470.570892
2845.040771	501.350067
2844.392578	520.551819
2843.743896	605.288391
2843.095459	582.065857
2842.446777	620.516785
2841.798096	643.541565
2841.149170	693.529785
2840.500244	843.663391
2839.851074	870.494385
2839.202148	843.401001
2838.552734	874.074280
2837.903320	908.587830
2837.253906	927.693298
2836.604492	946.792786
2835.954834	892.771362
2835.304932	892.632507
2834.655029	846.330200
2834.005127	746.193237
2833.354980	711.465332
2832.704834	692.128845
2832.054688	615.129883
2831.404297	541.998901
2830.753906	561.131348
2830.103271	503.402557
2829.452637	411.112122
2828.801758	414.889740
2828.150879	345.687622
2827.500000	360.995331
2826.848877	314.861786
2826.197754	287.938538
2825.546387	322.440948
2824.895020	303.200836
2824.243408	272.454529
2823.591797	272.412109
2822.940186	245.516342
2822.288330	222.464539
2821.636475	195.584900
2820.984619	210.892059
2820.332520	207.025406
2819.680176	164.827896
2819.028076	218.458755
2818.375488	226.088745
2817.723145	183.907959
2817.070557	222.187500
2816.417725	206.832001
2815.764893	183.822021
2815.112061	191.451447
2814.458984	191.421616
2813.805908	183.736115
2813.152832	141.607849
2812.499512	187.505508
2811.845947	160.693954
2811.192383	141.541656
2810.538818	195.067551
2809.885010	156.794571
2809.231201	183.535767
2808.577393	129.984238
2807.923340	172.011139
2807.269287	179.628082
2806.614990	141.387283
2805.960693	156.647980
2805.306152	164.263718
2804.651611	122.223709
2803.997070	179.488083
2803.342285	126.003891
2802.687500	122.166542
2802.032471	148.867249
2801.377441	148.844025
2800.722412	167.900406
2800.067139	129.720978
2799.411621	164.033295
2798.756348	141.122910
2798.100586	133.473816
2797.445068	144.891830
2796.789307	121.995132
2796.133301	179.152390
2795.477539	163.879807
2794.821289	167.664795
2794.165283	137.158875
2793.509033	133.328094
2792.852539	148.542404
2792.196045	148.519226
2791.539551	144.688446
2790.882813	182.735825
2790.226074	125.611267
2789.569092	152.232315
2788.912109	163.624191
2788.255127	144.575546
2787.597900	95.100639
2786.940430	140.726974
2786.283203	133.099319
2785.625488	144.485260
2784.968018	121.652802
2784.310303	117.832741
2783.652588	163.419891
2782.994629	129.195541
2782.336426	151.971008
2781.678467	136.752548
2781.020264	136.731186
2780.361816	125.317337
2779.703369	140.485367
2779.044922	136.667099
2778.386230	163.215759
2777.727539	129.034149
2777.068604	113.835876
2776.409668	113.818085
2775.750732	113.800293
2775.091553	163.088257
2774.432373	132.725510
2773.772949	113.746941
2773.113525	159.220825
2772.453857	140.244034
2771.794189	159.171051
2771.134521	128.832611
2770.474609	121.235260
2769.814697	170.460434
2769.154541	155.284103
2768.494385	143.899353
2767.833984	166.594238
2767.173584	147.639984
2766.513184	132.476700
2765.852539	151.378265
2765.191895	166.490036
2764.531006	155.114182
2763.870117	177.785995
2763.209229	155.065643
2762.548096	151.259888
2761.886719	136.112610
2761.225586	151.212570
2760.563965	128.510559
2759.902588	151.165237
2759.240967	162.477203
2758.579102	143.562042
2757.917236	185.090500
2757.255371	158.624161
2756.593262	181.256378
2755.931152	177.452423
2755.269043	143.449722
2754.606689	166.073669
2753.944092	181.142914
2753.281494	192.434204
2752.618896	147.132538
2751.956055	158.425613
2751.293213	165.943695
2750.630371	184.771988
2749.967285	150.810654
2749.303955	154.556717
2748.640625	184.685196
2747.977295	192.193253
2747.313721	154.484100
2746.650146	207.202316
2745.986572	173.269333
2745.322754	180.774460
2744.658691	154.387314
2743.994873	218.367355
2743.330566	218.333145
2742.666504	199.480057
2742.002197	203.211975
2741.337646	203.180130
2740.673096	195.624283
2740.008545	203.116455
2739.343750	225.649567
2738.678955	225.614197
2738.013916	172.943771
2737.348877	214.266296
2736.683594	176.648026
2736.018311	214.199112
2735.353027	169.078049
2734.687500	225.402054
2734.021973	191.561707
2733.356201	214.064804
2732.690430	221.541107
2732.024658	236.523743
2731.358643	213.964111
2730.692383	251.462219
2730.026367	228.907303
2729.359863	213.863434
2728.693604	277.603699
2728.027100	225.048782
2727.360352	288.767303
2726.693604	284.972351
2726.026855	288.676666
2725.359863	262.392181
2724.692871	296.081848
2724.025635	247.320694
2723.358398	303.482300
2722.691162	280.958038
2722.023682	299.641510
2721.355957	318.319153
2720.688477	288.314423
2720.020508	340.681763
2719.352783	363.087280
2718.684814	284.436096
2718.016602	314.327362
2717.348389	303.053802
2716.680176	303.006226
2716.011719	276.777039
2715.343262	269.254272
2714.674561	340.254028
2714.005859	261.692780
2713.337158	265.389557
2712.668213	235.449509
2711.999023	269.042877
2711.329834	231.639435
2710.660645	231.603043
2709.991455	242.771484
2709.321777	246.467712
2708.652344	231.493896
2707.982666	268.789368
2707.312988	257.549347
2706.643066	253.776855
2705.972900	276.125519
2705.302979	253.697098
2704.632813	249.926971
2703.962402	205.131683
2703.291992	234.932083
2702.621582	264.723114
2701.950928	223.674500
2701.280273	242.275940
2700.609375	197.517014
2699.938477	197.485962
2699.267334	219.808304
2698.596191	167.624039
2697.925049	223.463562
2697.253662	201.085587
2696.582031	234.562943
2695.910645	212.190247
2695.239014	197.268661
2694.567139	197.237640
2693.895264	208.369247
2693.223145	208.336472
2692.551270	204.583984
2691.878906	178.517929
2691.206543	204.519608
2690.534180	189.615616
2689.861816	185.868408
2689.189209	178.405594
2688.516357	211.823303
2687.843506	185.780670
2687.170654	170.891312
2686.497559	222.866638
2685.824463	163.409805
2685.151123	189.376999
2684.477783	189.347183
2683.804199	178.181061
2683.130615	167.018448
2682.457031	181.835892
2681.783203	200.359024
2681.109375	211.456787
2680.435303	196.586746
2679.761230	196.555786
2679.086914	200.232849
2678.412598	215.031036
2677.738281	207.583481
2677.063721	218.669571
2676.389160	196.401047
2675.714355	218.600677
2675.039551	159.294037
2674.364502	207.420013
2673.689453	233.310760
2673.014404	240.679520
2672.339111	196.215454
2671.663574	185.079742
2670.988037	214.658676
2670.312500	210.924408
2669.636719	203.491470
2668.960938	184.963089
2668.285156	177.536575
2667.609131	203.395264
2666.932861	225.548279
2666.256592	170.058777
2665.580322	170.031967
2664.903809	203.267029
2664.227295	177.368713
2663.550781	206.897537
2662.874023	217.946945
2662.197021	236.379745
2661.520020	214.185364
2660.843018	232.612930
2660.165771	228.884552
2659.488525	221.466232
2658.811035	250.955475
2658.133545	162.357330
2657.455811	258.255005
2656.778076	258.214264
2656.100342	191.786057
2655.422363	239.694733
2654.744385	180.664444
2654.066162	243.305542
2653.387939	206.408493
2652.709473	232.172897
2652.031006	232.136261
2651.352539	180.521927
2650.673828	209.961746
2649.994873	206.245636
2649.316162	228.307343
2648.636963	213.544113
2647.958008	261.366180
2647.278809	224.518585
2646.599365	261.283661
2645.919922	231.806625
2645.240479	253.843353
2644.560791	217.020187
2643.880859	198.597275
2643.201172	227.983078
2642.520996	268.389282
2641.841064	191.151215
2641.160889	209.498047
2640.480469	158.017410
