#Wave		#Intensity
3200.600830	58.937931
3200.007080	29.468966
3199.413086	33.673729
3198.819092	50.502956
3198.224854	50.495323
3197.630615	29.451153
3197.036377	29.446701
3196.442139	33.648285
3195.847656	42.054001
3195.252930	46.252407
3194.658447	63.061928
3194.063721	54.645405
3193.468750	63.042858
3192.873779	29.415552
3192.278809	46.217449
3191.683838	16.803802
3191.088623	8.400631
3190.493164	33.597443
3189.897949	58.786633
3189.302490	50.380920
3188.706787	79.757721
3188.111328	71.351379
3187.515381	41.965050
3186.919678	50.350441
3186.323730	75.514236
3185.727783	29.362206
3185.131592	33.551727
3184.535400	12.579994
3183.939209	46.119667
3183.342773	16.768250
3182.746338	33.531425
3182.149902	33.526348
3181.553223	29.331116
3180.956543	58.653355
3180.359619	67.022263
3179.762695	50.259087
3179.165771	33.500984
3178.568604	41.869892
3177.971436	46.049908
3177.374268	58.600101
3176.776855	46.035965
3176.179443	46.028996
3175.581787	62.757309
3174.984131	16.732748
3174.386475	41.825535
3173.788574	54.364964
3173.190674	0.000000
3172.592773	83.613075
3171.994629	66.880325
3171.396484	45.973259
3170.798340	41.787540
3170.199951	54.315575
3169.601563	50.129860
3169.002930	62.652832
3168.404297	41.762226
3167.805664	29.229130
3167.206787	16.699829
3166.607910	29.220272
3166.008789	33.389538
3165.409912	62.595894
3164.810547	50.069126
3164.211426	45.889744
3163.612061	25.026976
3163.012695	20.852652
3162.413086	37.529083
3161.813477	37.523396
3161.213623	62.529510
3160.614014	33.344017
3160.013916	25.004221
3159.414063	29.167170
3158.813965	37.494961
3158.213867	29.158325
3157.613525	66.637497
3157.013184	49.970543
3156.412598	54.126545
3155.812256	41.629490
3155.211426	37.460857
3154.610840	74.910355
3154.010010	45.771606
3153.409180	49.925087
3152.808105	58.237103
3152.207031	16.636648
3151.605957	54.060902
3151.004639	62.368500
3150.403320	29.100885
3149.801758	41.566383
3149.200195	29.092054
3148.598633	37.398396
3147.996826	49.856960
3147.395020	58.157627
3146.793213	29.074400
3146.191162	74.751396
3145.589111	49.826702
3144.986816	62.273922
3144.384766	62.264469
3143.782227	41.503345
3143.179932	62.245567
3142.577393	58.087044
3141.974609	66.375114
3141.371826	45.625961
3140.769043	58.060589
3140.166260	41.465553
3139.563232	37.313332
3138.960205	49.743553
3138.356934	62.169998
3137.753662	53.872482
3137.150391	45.577484
3136.546875	53.856121
3135.943359	37.279343
3135.339600	95.254959
3134.735840	53.831581
3134.132080	37.262356
3133.528076	41.396328
3132.924072	41.390041
3132.320068	24.830252
3131.715820	41.377464
3131.111572	8.274236
3130.507080	37.228401
3129.902588	37.222744
3129.298096	28.946623
3128.693604	57.884449
3128.088867	28.937826
3127.483887	28.933428
3126.878906	49.592621
3126.273926	66.113441
3125.668945	33.051697
3125.063721	57.831676
3124.458252	86.734329
3123.853027	90.850716
3123.247559	61.934254
3122.641846	66.053162
3122.036133	37.149254
3121.430420	37.143604
3120.824707	66.023033
3120.218750	57.761368
3119.612549	53.627396
3119.006592	41.245571
3118.400391	32.991436
3117.793945	41.233025
3117.187500	45.349426
3116.581055	32.976383
3115.974609	61.821316
3115.367920	65.932701
3114.760986	37.081501
3114.154297	70.032181
3113.547363	24.713480
3112.940186	41.182865
3112.333008	74.117874
3111.725830	65.872528
3111.118408	57.629692
3110.510986	57.620922
3109.903564	45.266689
3109.295898	69.946968
3108.688232	57.594616
3108.080566	57.585846
3107.472656	86.365623
3106.864746	53.456295
3106.256592	53.448154
3105.648438	24.664623
3105.040039	78.092751
3104.431885	53.423744
3103.823486	82.177864
3103.214844	36.974407
3102.606201	45.184059
3101.997559	57.498226
3101.388672	53.383076
3100.779785	57.480713
3100.170898	57.471958
3099.561768	36.940628
3098.952637	41.038891
3098.343262	45.135902
3097.733887	32.821110
3097.124512	28.714096
3096.514893	57.419445
3095.905273	57.410694
3095.295410	86.102921
3094.685791	61.492714
3094.075684	53.285564
3093.465820	36.884384
3092.855713	65.562241
3092.245361	90.134346
3091.635254	45.060303
3091.024658	77.819572
3090.414307	40.951424
3089.803711	57.323254
3089.193115	73.690094
3088.582275	24.559618
3087.971436	20.463228
3087.360596	45.012238
3086.749512	69.553764
3086.138428	61.361607
3085.527100	65.442398
3084.915771	16.358105
3084.304443	69.511345
3083.692871	49.059349
3083.081299	36.788898
3082.469482	53.131416
3081.857910	77.641762
3081.245850	49.029423
3080.634033	40.851620
3080.021973	53.099003
3079.409668	20.419577
3078.797607	61.249386
3078.185059	65.322708
3077.572754	77.558876
3076.960205	85.709892
3076.347656	61.212009
3075.734863	61.202667
3075.122070	53.034214
3074.509033	69.341850
3073.895996	44.861408
3073.282959	69.320686
3072.669922	77.464233
3072.056641	16.305769
3071.443115	77.440582
3070.829834	52.977573
3070.216064	32.596603
3069.602539	28.517673
3068.988770	57.026638
3068.375000	81.454185
3067.760986	73.297577
3067.146973	85.500778
3066.532715	61.062656
3065.918701	85.474663
3065.304199	48.835205
3064.689941	61.034679
3064.075439	65.093712
3063.460693	65.083771
3062.846191	69.140945
3062.231445	60.997395
3061.616455	77.251564
3061.001465	40.652504
3060.386475	56.904808
3059.771240	77.216156
3059.156006	97.521294
3058.540771	97.506386
3057.925293	52.807888
3057.309814	73.107437
3056.694092	48.730843
3056.078369	44.663113
3055.462646	60.894936
3054.846680	77.121796
3054.230713	52.759476
3053.614502	109.560623
3052.998291	60.857704
3052.382080	73.018082
3051.765625	85.174736
3051.149170	89.217033
3050.532715	85.148689
3049.916016	97.297905
3049.299316	36.481136
3048.682373	64.845428
3048.065430	56.731075
3047.448486	64.825600
3046.831299	20.254900
3046.214111	81.007210
3045.596680	76.945076
3044.979248	68.835060
3044.361816	72.873032
3043.744141	72.861885
3043.126465	68.803467
3042.508545	93.072807
3041.890869	105.196632
3041.272705	93.044319
3040.654785	93.030083
3040.036621	80.883347
3039.418213	93.001610
3038.799805	68.729797
3038.181396	88.930832
3037.562988	68.708755
3036.944336	88.903603
3036.325439	64.647270
3035.706543	96.956055
3035.087646	84.823563
3034.468750	84.810577
3033.849609	76.721626
3033.230469	76.709877
3032.611084	88.808365
3031.991699	84.758636
3031.372070	64.568123
3030.752441	72.628014
3030.132813	68.582611
3029.513184	92.774033
3028.893066	48.396427
3028.273193	64.518684
3027.653076	68.540604
3027.032959	60.467735
3026.412598	72.550163
3025.792480	68.509102
3025.171875	80.586594
3024.551270	84.602959
3023.930664	80.561897
3023.310059	88.604507
3022.689209	68.456627
3022.068115	76.498619
3021.447266	112.717537
3020.826172	96.600220
3020.204834	76.463455
3019.583496	92.546829
3018.962158	52.301060
3018.340576	84.473373
3017.718994	44.241173
3017.097412	28.149158
3016.475586	80.413834
3015.853760	68.341278
3015.231689	96.467010
3014.609619	100.471062
3013.987549	104.473877
3013.365234	100.440247
3012.742920	88.373856
3012.120361	44.180153
3011.497803	104.409798
3010.875244	76.287758
3010.252441	96.348709
3009.629639	108.375664
3009.006836	124.412231
3008.383789	100.317047
3007.760498	108.325790
3007.137451	80.229012
3006.514160	116.314217
3005.890625	96.245270
3005.267090	84.201691
3004.643555	76.170784
3004.019775	108.226082
3003.395996	116.224991
3002.772217	104.185722
3002.148193	96.156670
3001.524170	76.112343
3000.899902	88.116554
3000.275635	92.107712
2999.651367	84.085434
2999.026855	88.075974
2998.402344	96.068130
2997.777588	88.048927
2997.152832	104.041847
2996.528076	72.017906
2995.903076	80.007607
2995.278076	67.996025
2994.653076	79.983032
2994.027832	95.964897
2993.402344	87.954308
2992.777100	91.938103
2992.151367	99.917374
2991.525879	99.902023
2990.900146	95.891205
2990.274414	75.902206
2989.648438	87.873260
2989.022461	111.821510
2988.396240	95.832283
2987.770264	75.855560
2987.143799	91.811043
2986.517578	83.814590
2985.891113	87.792267
2985.264404	87.778770
2984.637695	103.722603
2984.010986	103.706657
2983.384033	95.714508
2982.757080	87.724808
2982.130127	115.619469
2981.502930	91.684097
2980.875732	111.598267
2980.248291	83.685829
2979.620850	115.548370
2978.993408	127.482040
2978.365723	115.512833
2977.738037	103.547302
2977.110107	103.531372
2976.482178	79.627266
2975.854248	103.499527
2975.226074	127.364441
2974.597900	87.549583
2973.969482	103.451767
2973.341309	143.218872
2972.712646	99.442245
2972.083984	91.472786
2971.455322	95.435181
2970.826660	107.348053
2970.197754	83.480080
2969.568604	151.035950
2968.939697	131.142609
2968.310547	123.175613
2967.681152	111.238266
2967.051758	95.332413
2966.422363	91.346161
2965.792725	107.215942
2965.163086	131.021530
2964.533203	127.031624
2963.903564	123.042938
2963.273438	103.181412
2962.643311	126.972954
2962.013184	111.084229
2961.383057	126.933846
2960.752686	146.744659
2960.122314	138.791138
2959.491699	142.734604
2958.861084	122.891426
2958.230225	138.727005
2957.599609	99.075455
2956.968506	126.797050
2956.337646	103.006729
2955.706299	95.068489
2955.075195	134.659607
2954.443848	114.839027
2953.812500	106.902618
2953.180908	138.556107
2952.549316	142.492889
2951.917725	158.301041
2951.285889	118.707481
2950.653809	150.339630
2950.021973	138.449371
2949.389893	146.338196
2948.757568	162.133545
2948.125244	142.339218
2947.492920	138.364014
2946.860352	122.532089
2946.227783	146.225433
2945.595215	142.251450
2944.962402	158.032806
2944.329590	177.759491
2943.696533	193.530472
2943.063477	197.449615
2942.430420	197.419174
2941.797119	177.649841
2941.163574	181.569611
2940.530273	157.862259
2939.896729	217.027130
2939.262939	205.157623
2938.629150	232.739090
2937.995361	216.926697
2937.361328	197.175659
2936.727295	248.403000
2936.093262	252.306961
2935.458984	236.501282
2934.824707	236.464783
2934.190186	267.952057
2933.555664	271.850555
2932.921143	267.869354
2932.286377	283.582581
2931.651367	271.724701
2931.016602	299.244781
2930.381592	299.198578
2929.746338	318.833466
2929.111084	326.655457
2928.475830	369.890015
2927.840332	314.751404
2927.204834	334.371735
2926.569336	322.520569
2925.933594	318.538177
2925.297607	338.148804
2924.661865	349.890625
2924.025879	381.282562
2923.389648	349.782562
2922.753418	278.996918
2922.117188	341.816650
2921.480713	373.190399
2920.844238	373.132751
2920.207764	341.658234
2919.571045	357.311432
2918.934082	349.404449
2918.297363	361.126312
2917.660156	345.371796
2917.023193	396.331360
2916.385986	404.117035
2915.748779	341.288818
2915.111328	411.836639
2914.473877	364.713196
2913.836182	360.735779
2913.198486	333.236969
2912.560791	403.742371
2911.922852	372.326172
2911.284912	380.105835
2910.646729	376.129059
2910.008545	403.492737
2909.370361	442.598328
2908.731934	395.535553
2908.093506	360.234100
2907.455078	375.838318
2906.816406	434.495850
2906.177490	442.256195
2905.538574	414.795624
2904.899658	430.381683
2904.260498	410.755341
2903.621338	418.514496
2902.982178	441.914215
2902.342773	488.767517
2901.703369	473.053741
2901.063721	476.889465
2900.424072	508.082275
2899.784424	500.188202
2899.144531	515.739258
2898.504639	515.659424
2897.864502	515.579651
2897.224365	488.162720
2896.583984	562.276367
2895.943848	523.148438
2895.303223	550.391846
2894.662842	612.752808
2894.021973	616.560181
2893.381348	554.037903
2892.740479	538.347839
2892.099609	581.169617
2891.458496	674.676331
2890.817383	658.974854
2890.176025	674.467407
2889.534668	537.931152
2888.893311	600.206970
2888.251709	697.535095
2887.610107	627.294739
2886.968262	642.780090
2886.326416	677.735840
2885.684570	654.264221
2885.042480	665.844360
2884.400391	751.392090
2883.758057	770.738770
2883.115723	832.891602
2882.473389	883.350891
2881.830811	968.811829
2881.188232	1019.234375
2880.545410	1050.193237
2879.902588	1291.148560
2879.259766	1388.158447
2878.616699	1376.279907
2877.973633	1216.691528
2877.330322	1329.214111
2876.687012	1080.304810
2876.043457	1049.054199
2875.399902	982.850220
2874.756348	831.214722
2874.112549	850.503723
2873.468750	714.467651
2872.824707	729.886353
2872.180664	632.728882
2871.536621	675.323608
2870.892334	663.577148
2870.248047	651.834290
2869.603760	675.009399
2868.958984	624.480774
2868.314453	585.602234
2867.669678	643.674805
2867.024902	628.067078
2866.379883	631.846008
2865.734863	631.747925
2865.089844	612.274170
2864.444580	666.422852
2863.799316	716.680786
2863.153809	662.342651
2862.508301	662.239868
2861.862549	596.310547
2861.216797	580.731812
2860.571045	596.125427
2859.925049	688.921143
2859.279053	669.465454
2858.632813	669.361511
2857.986572	738.891357
2857.340332	742.644531
2856.693848	804.406677
2856.047363	769.481079
2855.400635	777.093872
2854.753906	827.225159
2854.107178	780.717468
2853.460205	900.390625
2852.813232	846.158447
2852.166016	869.205811
2851.518799	942.458984
2850.871338	915.279053
2850.223877	988.502258
2849.576416	980.627197
2848.928711	1065.397827
2848.281006	1053.653687
2847.633301	1149.963379
2846.985352	1203.801392
2846.337158	1126.459473
2845.688965	1207.284302
2845.040771	1241.805542
2844.392578	1249.324463
2843.743896	1303.104980
2843.095459	1218.098145
2842.446777	1194.783936
2841.798096	1094.406006
2841.149170	1040.294678
2840.500244	1024.723511
2839.851074	947.529297
2839.202148	878.061340
2838.552734	785.511658
2837.903320	785.389526
2837.253906	758.321899
2836.604492	769.750244
2835.954834	692.667419
2835.304932	580.980652
2834.655029	553.961548
2834.005127	476.948242
2833.354980	465.336792
2832.704834	438.348267
2832.054688	426.746368
2831.404297	418.992035
2830.753906	365.119720
2830.103271	361.220154
2829.452637	307.373566
2828.801758	326.533569
2828.150879	276.550110
2827.500000	326.431946
2826.848877	264.944672
2826.197754	245.707550
2825.546387	253.346466
2824.895020	257.144989
2824.243408	264.779755
2823.591797	272.412109
2822.940186	230.171570
2822.288330	241.642517
2821.636475	210.924896
2820.984619	256.904877
2820.332520	214.693008
2819.680176	229.992401
2819.028076	218.458755
2818.375488	218.424728
2817.723145	214.559280
2817.070557	249.003235
2816.417725	225.983109
2815.764893	179.992401
2815.112061	202.938538
2814.458984	233.534363
2813.805908	206.703125
2813.152832	191.361969
2812.499512	221.945282
2811.845947	187.476288
2811.192383	202.748871
2810.538818	183.593002
2809.885010	133.849030
2809.231201	202.654083
2808.577393	202.622482
2807.923340	229.348190
2807.269287	152.874954
2806.614990	160.493683
2805.960693	179.572067
2805.306152	194.824417
2804.651611	175.696579
2803.997070	190.944763
2803.342285	179.460083
2802.687500	190.885223
2802.032471	202.306778
2801.377441	179.376144
2800.722412	202.243668
2800.067139	202.212128
2799.411621	175.477478
2798.756348	194.520767
2798.100586	198.303970
2797.445068	190.647141
2796.789307	213.491486
2796.133301	194.399399
2795.477539	186.746750
2794.821289	175.285919
2794.165283	209.548279
2793.509033	167.612473
2792.852539	190.438980
2792.196045	194.217438
2791.539551	182.764359
2790.882813	194.156815
2790.226074	232.190521
2789.569092	205.513626
2788.912109	205.481537
2788.255127	190.230972
2787.597900	190.201279
2786.940430	197.778442
2786.283203	152.113510
2785.625488	220.530136
2784.968018	190.082504
2784.310303	178.649643
2783.652588	212.825897
2782.994629	224.192261
2782.336426	239.354355
2781.678467	235.518280
2781.020264	148.125443
2780.361816	174.684769
2779.703369	212.626495
2779.044922	205.000656
2778.386230	201.172913
2777.727539	159.395126
2777.068604	178.342865
2776.409668	182.108932
2775.750732	250.360657
2775.091553	174.466507
2774.432373	219.945129
2773.772949	223.702316
2773.113525	227.458328
2772.453857	170.567078
2771.794189	234.966782
2771.134521	170.513748
2770.474609	189.430099
2769.814697	162.884415
2769.154541	215.882782
2768.494385	196.914902
2767.833984	204.456573
2767.173584	162.782547
2766.513184	230.887955
2765.852539	174.084991
2765.191895	170.273911
2764.531006	185.380356
2763.870117	200.482086
2763.209229	162.629822
2762.548096	207.982346
2761.886719	207.949814
2761.225586	177.674759
2760.563965	173.867233
2759.902588	200.293945
2759.240967	211.598221
2758.579102	200.231262
2757.917236	207.754639
2757.255371	200.168594
2756.593262	219.018127
2755.931152	203.881516
2755.269043	196.299606
2754.606689	192.494476
2753.944092	207.559586
2753.281494	215.073532
2752.618896	203.721970
2751.956055	215.006180
2751.293213	192.343826
2750.630371	203.626282
2749.967285	184.743057
2749.303955	211.101852
2748.640625	226.145142
2747.977295	165.813797
2747.313721	211.002670
2746.650146	207.202316
2745.986572	233.536926
2745.322754	214.669662
2744.658691	225.932663
2743.994873	199.542587
2743.330566	244.683685
2742.666504	225.826477
2742.002197	222.027908
2741.337646	225.755707
2740.673096	203.148285
2740.008545	199.355026
2739.343750	244.453705
2738.678955	236.894913
2738.013916	255.656006
2737.348877	270.652161
2736.683594	217.991180
2736.018311	248.020035
2735.353027	247.981140
2734.687500	240.428864
2734.021973	225.366714
2733.356201	244.108994
2732.690430	270.355255
2732.024658	259.049805
2731.358643	255.255417
2730.692383	243.955887
2730.026367	262.680511
2729.359863	262.639313
2728.693604	240.089691
2728.027100	300.065033
2727.360352	273.766388
2726.693604	258.724884
2726.026855	292.425720
2725.359863	284.882935
2724.692871	307.325439
2724.025635	329.760925
2723.358398	325.962463
2722.691162	337.149628
2722.023682	329.605682
2721.355957	303.339417
2720.688477	303.291809
2720.020508	277.037903
2719.352783	284.480743
2718.684814	318.119324
2718.016602	321.811371
2717.348389	321.760834
2716.680176	310.487854
2716.011719	366.542542
2715.343262	269.254272
2714.674561	299.124420
2714.005859	295.338989
2713.337158	302.768372
2712.668213	313.932678
2711.999023	313.883362
2711.329834	302.625702
2710.660645	336.197968
2709.991455	257.711273
2709.321777	313.686188
2708.652344	328.571991
2707.982666	268.789368
2707.312988	328.468719
2706.643066	276.168945
2705.972900	272.394104
2705.302979	257.427948
2704.632813	257.387482
2703.962402	287.184357
2703.291992	313.242767
2702.621582	283.365570
2701.950928	257.225677
2701.280273	249.730591
2700.609375	294.412170
2699.938477	245.925919
2699.267334	268.240631
2698.596191	275.648407
2697.925049	264.431885
2697.253662	260.666504
2696.582031	238.286163
2695.910645	264.307129
2695.239014	260.543518
2694.567139	275.388397
2693.895264	267.903320
2693.223145	245.539398
2692.551270	264.099335
2691.878906	256.619507
2691.206543	264.016235
2690.534180	252.820816
2689.861816	256.498413
2689.189209	263.891602
2688.516357	208.107101
2687.843506	248.946106
2687.170654	260.052002
2686.497559	226.581070
2685.824463	226.545410
2685.151123	248.789398
2684.477783	252.462921
2683.804199	233.862640
2683.130615	259.806488
2682.457031	263.476501
2681.783203	248.593613
2681.109375	267.103302
2680.435303	278.188782
2679.761230	215.098785
2679.086914	237.313004
2678.412598	233.568192
2677.738281	252.065643
2677.063721	270.557251
2676.389160	248.280563
2675.714355	263.061829
2675.039551	229.679779
2674.364502	233.347519
2673.689453	251.827484
2673.014404	236.976761
2672.339111	259.152496
2671.663574	248.006851
2670.988037	233.163727
2670.312500	262.730408
2669.636719	203.491470
2668.960938	270.046112
2668.285156	255.208832
2667.609131	229.281937
2666.932861	236.640823
2666.256592	258.785095
2665.580322	251.351593
2664.903809	243.920441
2664.227295	240.186798
2663.550781	236.454315
2662.874023	206.864899
2662.197021	247.460052
2661.520020	236.342468
2660.843018	232.612930
2660.165771	262.109711
2659.488525	228.848450
2658.811035	243.574432
2658.133545	250.915878
2657.455811	280.391144
2656.778076	247.147949
2656.100342	254.485336
2655.422363	243.382339
2654.744385	269.153137
2654.066162	243.305542
2653.387939	250.638870
2652.709473	235.858185
2652.031006	302.145599
2651.352539	261.572571
2650.673828	243.113602
2649.994873	254.124100
2649.316162	301.954865
2648.636963	228.271301
2647.958008	276.091034
2647.278809	220.837952
2646.599365	231.843246
2645.919922	231.806625
2645.240479	250.164474
2644.560791	268.516510
2643.880859	261.118652
2643.201172	275.785980
2642.520996	264.712738
2641.841064	272.022888
2641.160889	297.707733
2640.480469	242.538361
2639.800049	249.848526
