#Wave		#Intensity
3200.600830	-4.209852
3200.007080	37.888672
3199.413086	8.418432
3198.819092	33.668640
3198.224854	33.663551
3197.630615	8.414616
3197.036377	33.653374
3196.442139	33.648285
3195.847656	63.080997
3195.252930	16.819057
3194.658447	46.245411
3194.063721	42.034927
3193.468750	16.811428
3192.873779	46.224438
3192.278809	25.209517
3191.683838	25.205706
3191.088623	42.003155
3190.493164	16.798721
3189.897949	58.786633
3189.302490	71.372971
3188.706787	16.791100
3188.111328	58.759960
3187.515381	62.947575
3186.919678	33.566963
3186.323730	58.733295
3185.727783	54.529808
3185.131592	37.745693
3184.535400	41.933315
3183.939209	29.348879
3183.342773	29.344437
3182.746338	25.148569
3182.149902	50.289524
3181.553223	41.901596
3180.956543	33.516201
3180.359619	29.322239
3179.762695	41.882572
3179.165771	29.313362
3178.568604	25.121935
3177.971436	50.236263
3177.374268	71.157265
3176.776855	66.961403
3176.179443	25.106726
3175.581787	16.735283
3174.984131	16.732748
3174.386475	50.190643
3173.788574	12.545760
3173.190674	37.631580
3172.592773	58.529152
3171.994629	45.980225
3171.396484	62.690807
3170.798340	50.145050
3170.199951	41.781212
3169.601563	45.952370
3169.002930	37.591698
3168.404297	33.409782
3167.805664	45.931488
3167.206787	41.749573
3166.607910	25.045948
3166.008789	62.605381
3165.409912	41.730595
3164.810547	37.551846
3164.211426	16.687180
3163.612061	50.053951
3163.012695	54.216896
3162.413086	25.019390
3161.813477	8.338532
3161.213623	54.192245
3160.614014	54.184029
3160.013916	37.506332
3159.414063	29.167170
3158.813965	33.328854
3158.213867	20.827375
3157.613525	16.659374
3157.013184	37.477909
3156.412598	41.635803
3155.812256	54.118336
3155.211426	29.136223
3154.610840	45.778549
3154.010010	45.771606
3153.409180	20.802120
3152.808105	0.000000
3152.207031	33.273296
3151.605957	54.060902
3151.004639	24.947401
3150.403320	49.887230
3149.801758	66.506218
3149.200195	45.716087
3148.598633	66.486038
3147.996826	20.773733
3147.395020	29.078814
3146.793213	24.920914
3146.191162	37.375698
3145.589111	16.608900
3144.986816	74.728706
3144.384766	29.056753
3143.782227	20.751673
3143.179932	66.395271
3142.577393	45.639820
3141.974609	24.890667
3141.371826	29.034704
3140.769043	29.030294
3140.166260	29.025887
3139.563232	53.897034
3138.960205	49.743553
3138.356934	24.868000
3137.753662	41.440372
3137.150391	29.003855
3136.546875	49.713341
3135.943359	45.563641
3135.339600	28.990641
3134.735840	66.254257
3134.132080	33.122097
3133.528076	16.558531
3132.924072	33.112034
3132.320068	41.383751
3131.715820	37.239716
3131.111572	12.411353
3130.507080	8.272978
3129.902588	53.766186
3129.298096	20.676159
3128.693604	49.615242
3128.088867	-4.133975
3127.483887	78.533585
3126.878906	57.858059
3126.273926	37.188812
3125.668945	49.577545
3125.063721	66.093346
3124.458252	74.343712
3123.853027	66.073250
3123.247559	53.676353
3122.641846	28.898256
3122.036133	66.043114
3121.430420	41.270672
3120.824707	24.758636
3120.218750	49.509743
3119.612549	45.377029
3119.006592	20.622786
3118.400391	37.115368
3117.793945	12.369907
3117.187500	45.349426
3116.581055	32.976383
3115.974609	41.214211
3115.367920	41.207939
3114.760986	28.841169
3114.154297	57.673561
3113.547363	32.951305
3112.940186	53.537724
3112.333008	37.058937
3111.725830	32.936264
3111.118408	53.513287
3110.510986	86.431381
3109.903564	45.266689
3109.295898	49.374329
3108.688232	49.366814
3108.080566	78.152222
3107.472656	49.351784
3106.864746	41.120224
3106.256592	74.005135
3105.648438	57.550789
3105.040039	45.211590
3104.431885	45.204708
3103.823486	49.306717
3103.214844	36.974407
3102.606201	49.291698
3101.997559	53.391209
3101.388672	28.744734
3100.779785	32.846123
3100.170898	24.630838
3099.561768	41.045143
3098.952637	20.519445
3098.343262	16.413055
3097.733887	28.718472
3097.124512	20.510069
3096.514893	57.419445
3095.905273	53.309929
3095.295410	41.001389
3094.685791	40.995144
3094.075684	49.186672
3093.465820	8.196529
3092.855713	28.683481
3092.245361	45.067173
3091.635254	53.253086
3091.024658	61.436501
3090.414307	81.902847
3089.803711	61.417774
3089.193115	53.220623
3088.582275	16.373079
3087.971436	36.833813
3087.360596	12.276065
3086.749512	49.096771
3086.138428	40.907738
3085.527100	28.631050
3084.915771	28.626684
3084.304443	12.266707
3083.692871	32.706230
3083.081299	28.613588
3082.469482	32.696255
3081.857910	73.555351
3081.245850	16.343140
3080.634033	49.021942
3080.021973	28.591770
3079.409668	32.671322
3078.797607	20.416462
3078.185059	65.322708
3077.572754	28.574324
3076.960205	36.732811
3076.347656	61.212009
3075.734863	44.881954
3075.122070	40.795551
3074.509033	28.552526
3073.895996	12.234929
3073.282959	28.543810
3072.669922	61.155972
3072.056641	40.764423
3071.443115	24.454920
3070.829834	28.526384
3070.216064	24.447454
3069.602539	44.813488
3068.988770	40.733315
3068.375000	36.654385
3067.760986	24.432526
3067.146973	8.142931
3066.532715	65.133499
3065.918701	77.334221
3065.304199	32.556805
3064.689941	61.034679
3064.075439	32.546856
3063.460693	52.880566
3062.846191	44.738258
3062.231445	32.531944
3061.616455	40.658718
3061.001465	48.783005
3060.386475	56.904808
3059.771240	44.704090
3059.156006	44.697258
3058.540771	73.129791
3057.925293	77.180763
3057.309814	52.799816
3056.694092	4.060904
3056.078369	52.783680
3055.462646	16.238649
3054.846680	40.590416
3054.230713	81.168427
3053.614502	24.346804
3052.998291	44.628983
3052.382080	44.622162
3051.765625	40.559399
3051.149170	40.553196
3050.532715	52.711094
3049.916016	12.162238
3049.299316	20.267298
3048.682373	36.475555
3048.065430	32.417755
3047.448486	68.877197
3046.831299	4.050980
3046.214111	24.302162
3045.596680	64.795853
3044.979248	48.589455
3044.361816	64.776031
3043.744141	32.383057
3043.126465	68.803467
3042.508545	60.699654
3041.890869	48.552292
3041.272705	40.454052
3040.654785	56.627007
3040.036621	80.883347
3039.418213	68.740318
3038.799805	76.815659
3038.181396	32.338482
3037.562988	60.625374
3036.944336	52.533947
3036.325439	40.404545
3035.706543	64.637375
3035.087646	76.745125
3034.468750	64.617584
3033.849609	80.759605
3033.230469	60.560432
3032.611084	52.477669
3031.991699	84.758636
3031.372070	56.497105
3030.752441	52.453564
3030.132813	88.753975
3029.513184	44.370190
3028.893066	32.264286
3028.273193	60.486267
3027.653076	52.413403
3027.032959	12.093547
3026.412598	44.336212
3025.792480	52.389313
3025.171875	32.234638
3024.551270	68.488113
3023.930664	24.168570
3023.310059	48.329731
3022.689209	68.456627
3022.068115	60.393650
3021.447266	36.230637
3020.826172	72.450165
3020.204834	64.390274
3019.583496	60.356628
3018.962158	56.324219
3018.340576	60.338123
3017.718994	52.285023
3017.097412	52.277008
3016.475586	48.248302
3015.853760	24.120451
3015.231689	36.175129
3014.609619	24.113054
3013.987549	68.309845
3013.365234	32.140877
3012.742920	40.169937
3012.120361	36.147396
3011.497803	60.236420
3010.875244	32.121162
3010.252441	64.232468
3009.629639	52.180874
3009.006836	64.212761
3008.383789	56.177547
3007.760498	88.265457
3007.137451	64.183212
3006.514160	48.130020
3005.890625	36.091976
3005.267090	76.182480
3004.643555	28.062922
3004.019775	68.142349
3003.395996	88.170685
3002.772217	96.171432
3002.148193	64.104446
3001.524170	80.118256
3000.899902	56.074169
3000.275635	40.046829
2999.651367	36.036613
2999.026855	40.034534
2998.402344	48.034065
2997.777588	20.011120
2997.152832	52.020924
2996.528076	28.006964
2995.903076	32.003044
2995.278076	27.998362
2994.653076	43.990669
2994.027832	47.982449
2993.402344	59.968845
2992.777100	63.956944
2992.151367	79.933899
2991.525879	67.933372
2990.900146	23.972801
2990.274414	47.938236
2989.648438	51.925110
2989.022461	31.949003
2988.396240	27.951082
2987.770264	59.885971
2987.143799	75.843903
2986.517578	71.841080
2985.891113	43.896133
2985.264404	103.738548
2984.637695	63.829292
2984.010986	67.808197
2983.384033	67.797775
2982.757080	39.874912
2982.130127	47.842537
2981.502930	35.876385
2980.875732	43.842175
2980.248291	63.760632
2979.620850	51.797546
2978.993408	31.870510
2978.365723	15.932804
2977.738037	51.773651
2977.110107	43.801735
2976.482178	47.776363
2975.854248	91.557274
2975.226074	59.702080
2974.597900	35.815739
2973.969482	63.662624
2973.341309	47.739624
2972.712646	83.531487
2972.083984	59.656166
2971.455322	47.717590
2970.826660	63.613663
2970.197754	75.529602
2969.568604	91.416496
2968.939697	115.246536
2968.310547	67.547920
2967.681152	35.755157
2967.051758	43.694019
2966.422363	63.545155
2965.792725	71.477295
2965.163086	71.466293
2964.533203	55.576336
2963.903564	39.691269
2963.273438	55.559223
2962.643311	59.518570
2962.013184	67.443993
2961.383057	51.566875
2960.752686	67.423225
2960.122314	63.447376
2959.491699	39.648502
2958.861084	75.320549
2958.230225	83.236206
2957.599609	75.297348
2956.968506	79.248154
2956.337646	47.541569
2955.706299	87.146111
2955.075195	106.935570
2954.443848	63.359463
2953.812500	75.227768
2953.180908	67.298683
2952.549316	91.037125
2951.917725	102.895676
2951.285889	87.052155
2950.653809	39.563061
2950.021973	27.689875
2949.389893	102.832253
2948.757568	86.998489
2948.125244	94.892815
2947.492920	59.298866
2946.860352	98.816200
2946.227783	79.040771
2945.595215	86.931442
2944.962402	98.770500
2944.329590	126.406746
2943.696533	106.639244
2943.063477	134.265747
2942.430420	78.967667
2941.797119	94.746582
2941.163574	98.679138
2940.530273	146.022598
2939.896729	134.162231
2939.262939	189.376282
2938.629150	197.236511
2937.995361	153.820755
2937.361328	161.684036
2936.727295	169.544907
2936.093262	216.826294
2935.458984	169.492584
2934.824707	197.053986
2934.190186	149.737915
2933.555664	185.173569
2932.921143	185.144989
2932.286377	248.134766
2931.651367	200.839996
2931.016602	220.496140
2930.381592	216.525284
2929.746338	224.364288
2929.111084	192.844788
2928.475830	228.230011
2927.840332	192.785233
2927.204834	212.424393
2926.569336	212.391586
2925.933594	247.751907
2925.297607	267.373474
2924.661865	267.332184
2924.025879	176.883667
2923.389648	243.668747
2922.753418	227.912964
2922.117188	208.233124
2921.480713	274.982391
2920.844238	227.807358
2920.207764	196.355316
2919.571045	259.148956
2918.934082	259.108917
2918.297363	251.218307
2917.660156	251.179489
2917.023193	235.444366
2916.385986	231.484512
2915.748779	258.908752
2915.111328	258.868744
2914.473877	247.063782
2913.836182	250.946640
2913.198486	254.828278
2912.560791	278.307861
2911.922852	286.103271
2911.284912	293.896271
2910.646729	301.686859
2910.008545	278.135773
2909.370361	297.676758
2908.731934	289.798340
2908.093506	313.247040
2907.455078	274.048767
2906.816406	332.722046
2906.177490	297.446625
2905.538574	344.358612
2904.899658	324.742554
2904.260498	293.396667
2903.621338	344.198822
2902.982178	344.145569
2902.342773	375.373444
2901.703369	379.224915
2901.063721	394.801941
2900.424072	426.007446
2899.784424	371.233429
2899.144531	406.340027
2898.504639	386.744568
2897.864502	394.496521
2897.224365	406.151367
2896.583984	382.660339
2895.943848	398.217468
2895.303223	425.480225
2894.662842	398.094177
2894.021973	440.957611
2893.381348	440.889343
2892.740479	413.513580
2892.099609	397.847656
2891.458496	464.083740
2890.817383	464.011871
2890.176025	413.257477
2889.534668	436.581787
2888.893311	456.001404
2888.251709	529.970825
2887.610107	514.303772
2886.968262	483.058990
2886.326416	506.354340
2885.684570	514.064758
2885.042480	541.241882
2884.400391	541.158020
2883.758057	611.141357
2883.115723	653.858826
2882.473389	751.042847
2881.830811	793.725403
2881.188232	902.528198
2880.545410	925.725891
2879.902588	1007.251465
2879.259766	1061.532959
2878.616699	1189.665649
2877.973633	1154.496460
2877.330322	1045.492920
2876.687012	963.725098
2876.043457	881.982605
2875.399902	776.956665
2874.756348	718.573486
2874.112549	726.229187
2873.468750	613.510254
2872.824707	609.532776
2872.180664	570.620483
2871.536621	535.601440
2870.892334	516.115540
2870.248047	500.515625
2869.603760	500.437988
2868.958984	535.269226
2868.314453	465.379272
2867.669678	511.837769
2867.024902	500.127502
2866.379883	476.791748
2865.734863	523.226807
2865.089844	507.645020
2864.444580	445.573425
2863.799316	464.874023
2863.153809	522.902100
2862.508301	429.875000
2861.862549	468.529724
2861.216797	460.713898
2860.571045	476.126160
2859.925049	495.403961
2859.279053	553.373169
2858.632813	568.763855
2857.986572	549.332825
2857.340332	545.379578
2856.693848	564.631592
2856.047363	653.478943
2855.400635	610.849915
2854.753906	641.679321
2854.107178	622.255005
2853.460205	656.937378
2852.813232	637.516663
2852.166016	761.038025
2851.518799	760.919800
2850.871338	791.697083
2850.223877	853.355469
2849.576416	795.311829
2848.928711	826.069336
2848.281006	887.693542
2847.633301	906.850281
2846.985352	953.009399
2846.337158	964.434509
2845.688965	975.856018
2845.040771	983.417419
2844.392578	1014.112122
2843.743896	1013.954468
2843.095459	982.958923
2842.446777	978.951965
2841.798096	917.143066
2841.149170	920.853455
2840.500244	843.663391
2839.851074	866.642639
2839.202148	797.187256
2838.552734	716.201782
2837.903320	642.941406
2837.253906	596.649231
2836.604492	569.615173
2835.954834	538.741333
2835.304932	407.840698
2834.655029	477.022461
2834.005127	380.789337
2833.354980	388.421600
2832.704834	330.683777
2832.054688	338.321442
2831.404297	292.141235
2830.753906	288.252411
2830.103271	249.779892
2829.452637	215.161499
2828.801758	230.494293
2828.150879	226.617447
2827.500000	184.338043
2826.848877	184.309341
2826.197754	199.637375
2825.546387	165.059052
2824.895020	157.357391
2824.243408	157.332886
2823.591797	161.145187
2822.940186	153.447708
2822.288330	157.259415
2821.636475	111.214951
2820.984619	122.700829
2820.332520	103.512703
2819.680176	103.496582
2819.028076	114.978294
2818.375488	118.792397
2817.723145	114.942474
2817.070557	91.939659
2816.417725	107.246223
2815.764893	84.251762
2815.112061	126.357956
2814.458984	88.053940
2813.805908	91.868057
2813.152832	91.853745
2812.499512	99.492714
2811.845947	95.651161
2811.192383	84.159904
2810.538818	80.321938
2809.885010	80.309418
2809.231201	72.649574
2808.577393	91.753578
2807.923340	64.981987
2807.269287	80.259354
2806.614990	114.638344
2805.960693	118.441154
2805.306152	99.322250
2804.651611	87.848289
2803.997070	99.291275
2803.342285	133.640488
2802.687500	80.171791
2802.032471	103.061943
2801.377441	106.862381
2800.722412	72.502449
2800.067139	68.675812
2799.411621	57.220917
2798.756348	76.282654
2798.100586	61.016605
2797.445068	110.575340
2796.789307	68.622261
2796.133301	72.423309
2795.477539	99.090111
2794.821289	87.642960
2794.165283	99.059189
2793.509033	53.331238
2792.852539	95.219490
2792.196045	83.780075
2791.539551	53.306271
2790.882813	98.981903
2790.226074	53.289631
2789.569092	87.533585
2788.912109	91.325127
2788.255127	53.264675
2787.597900	60.864410
2786.940430	72.265198
2786.283203	76.056755
2785.625488	114.067314
2784.968018	106.446198
2784.310303	102.628517
2783.652588	76.009254
2782.994629	106.396332
2782.336426	129.175369
2781.678467	79.772316
2781.020264	117.740738
2780.361816	102.532364
2779.703369	87.328743
2779.044922	87.315094
2778.386230	87.301453
2777.727539	75.902443
2777.068604	75.890579
2776.409668	53.115105
2775.750732	64.486832
2775.091553	79.647758
2774.432373	68.258835
2773.772949	94.789116
2773.113525	87.192360
2772.453857	75.807587
2771.794189	87.165100
2771.134521	75.783890
2770.474609	79.560638
2769.814697	60.608150
2769.154541	94.685432
2768.494385	75.736496
2767.833984	75.724655
2767.173584	90.855377
2766.513184	102.196312
2765.852539	90.826958
2765.191895	102.164345
2764.531006	68.098907
2763.870117	87.001656
2763.209229	68.077599
2762.548096	98.318932
2761.886719	94.522644
2761.225586	49.144081
2760.563965	109.611954
2759.902588	83.140884
2759.240967	98.242035
2758.579102	64.225121
2757.917236	86.879211
2757.255371	75.535316
2756.593262	83.075844
2755.931152	98.165176
2755.269043	83.049835
2754.606689	101.908844
2753.944092	113.214317
2753.281494	98.103714
2752.618896	49.044178
2751.956055	75.440765
2751.293213	82.971848
2750.630371	71.646286
2749.967285	101.797195
2749.303955	67.854172
2748.640625	90.458054
2747.977295	90.443886
2747.313721	109.269241
2746.650146	90.415550
2745.986572	94.168114
2745.322754	94.153358
2744.658691	109.200790
2743.994873	109.183678
2743.330566	101.637840
2742.666504	112.913239
2742.002197	143.001022
2741.337646	146.741211
2740.673096	112.860161
2740.008545	101.558228
2739.343750	109.063957
2738.678955	124.087807
2738.013916	139.106949
2737.348877	97.735504
2736.683594	116.512527
2736.018311	90.189102
2735.353027	120.233284
2734.687500	120.214432
2734.021973	82.634460
2733.356201	101.399117
2732.690430	127.667755
2732.024658	86.349937
2731.358643	127.627708
2730.692383	105.088692
2730.026367	150.103149
2729.359863	105.055725
2728.693604	150.056061
2728.027100	157.534149
2727.360352	131.257858
2726.693604	104.989815
2726.026855	127.467628
2725.359863	153.686844
2724.692871	183.645691
2724.025635	161.133179
2723.358398	172.347977
2722.691162	164.828705
2722.023682	194.766998
2721.355957	179.756699
2720.688477	146.029388
2720.020508	175.956512
2719.352783	160.956223
2718.684814	145.960632
2718.016602	168.389664
2717.348389	157.139008
2716.680176	202.004150
2716.011719	201.972427
2715.343262	168.283920
2714.674561	190.691833
2714.005859	134.584854
2713.337158	171.942520
2712.668213	108.381523
2711.999023	179.361923
2711.329834	160.653152
2710.660645	100.859390
2709.991455	164.337631
2709.321777	123.233856
2708.652344	171.753540
2707.982666	123.195129
2707.312988	130.640976
2706.643066	115.692390
2705.972900	126.868484
2705.302979	138.041061
2704.632813	108.177345
2703.962402	104.430672
2703.291992	145.434143
2702.621582	123.040314
2701.950928	145.388428
2701.280273	96.910378
2700.609375	108.075348
2699.938477	115.510658
2699.267334	126.669189
2698.596191	115.474335
2697.925049	108.007393
2697.253662	119.161827
2696.582031	104.250198
2695.910645	122.846977
2695.239014	126.549706
2694.567139	126.529800
2693.895264	133.951660
2693.223145	119.049408
2692.551270	85.553299
2691.878906	107.854584
2691.206543	141.304459
2690.534180	115.256554
2689.861816	78.064735
2689.189209	115.220276
2688.516357	78.040161
2687.843506	115.184013
2687.170654	96.590744
2686.497559	66.859993
2685.824463	111.415779
2685.151123	96.545135
2684.477783	89.104561
2683.804199	111.363167
2683.130615	100.211067
2682.457031	81.640610
2681.783203	103.889870
2681.109375	96.453972
2680.435303	96.438782
2679.761230	89.006393
2679.086914	103.824440
2678.412598	100.100655
2677.738281	122.325974
2677.063721	111.187912
2676.389160	118.581764
2675.714355	96.332504
2675.039551	81.499275
2674.364502	103.710007
2673.689453	122.210396
2673.014404	107.380089
2672.339111	92.554459
2671.663574	107.346252
2670.988037	103.628326
2670.312500	118.413704
2669.636719	77.696747
2668.960938	77.684502
2668.285156	114.659042
2667.609131	96.150490
2666.932861	107.227867
2666.256592	103.514038
2665.580322	81.319633
2664.903809	144.134796
2664.227295	99.769897
2663.550781	125.616356
2662.874023	99.738434
2662.197021	84.948975
2661.520020	114.478386
2660.843018	110.768059
2660.165771	70.142036
2659.488525	103.350914
2658.811035	88.572517
2658.133545	103.318306
2657.455811	70.097786
2656.778076	114.352036
2656.100342	92.204834
2655.422363	118.003563
2654.744385	92.175735
2654.066162	77.415398
2653.387939	70.031448
2652.709473	106.873238
2652.031006	95.802261
2651.352539	95.787140
2650.673828	73.670784
2649.994873	125.220566
2649.316162	117.836044
2648.636963	139.908218
2647.958008	92.030342
2647.278809	99.377083
2646.599365	80.961128
2645.919922	88.307289
2645.240479	88.293343
2644.560791	117.705864
2643.880859	88.265457
2643.201172	121.345833
2642.520996	99.267273
2641.841064	80.871666
2641.160889	99.235916
2640.480469	84.520943
2639.800049	88.181831
2639.119629	84.494240
2638.438965	124.884789
2637.758301	84.467537
2637.077393	84.454193
2636.396484	84.440849
2635.715332	80.756737
2635.034180	73.403618
2634.353027	95.409615
2633.671631	113.739639
2632.989990	80.705696
