#Wave		#Intensity
3200.600830	46.308376
3200.007080	16.839409
3199.413086	29.464512
3198.819092	21.042900
3198.224854	21.039719
3197.630615	25.243847
3197.036377	29.446701
3196.442139	12.618108
3195.847656	16.821600
3195.252930	21.023821
3194.658447	12.612386
3194.063721	12.610478
3193.468750	12.608572
3192.873779	21.011108
3192.278809	8.403172
3191.683838	37.808559
3191.088623	46.203472
3190.493164	16.798721
3189.897949	37.791405
3189.302490	33.587280
3188.706787	37.779976
3188.111328	33.577118
3187.515381	25.179029
3186.919678	37.762833
3186.323730	29.366648
3185.727783	12.583802
3185.131592	50.327591
3184.535400	8.386662
3183.939209	8.385394
3183.342773	20.960312
3182.746338	12.574285
3182.149902	33.526348
3181.553223	20.950798
3180.956543	25.137152
3180.359619	0.000000
3179.762695	4.188257
3179.165771	41.876232
3178.568604	20.934946
3177.971436	-4.186355
3177.374268	25.114328
3176.776855	37.665791
3176.179443	12.553363
3175.581787	8.367641
3174.984131	20.915936
3174.386475	50.190643
3173.788574	12.545760
3173.190674	33.450294
3172.592773	37.625881
3171.994629	12.540061
3171.396484	41.793873
3170.798340	4.178754
3170.199951	33.424969
3169.601563	20.887442
3169.002930	33.414845
3168.404297	12.528667
3167.805664	16.702360
3167.206787	16.699829
3166.607910	41.743244
3166.008789	25.042152
3165.409912	20.865297
3164.810547	29.206989
3164.211426	20.858974
3163.612061	33.369301
3163.012695	16.682121
3162.413086	25.019390
3161.813477	8.338532
3161.213623	20.843170
3160.614014	16.672009
3160.013916	25.004221
3159.414063	16.666954
3158.813965	29.162746
3158.213867	20.827375
3157.613525	29.153904
3157.013184	33.313694
3156.412598	29.145063
3155.812256	24.977694
3155.211426	29.136223
3154.610840	-4.161686
3154.010010	45.771606
3153.409180	12.481272
3152.808105	33.278343
3152.207031	29.114134
3151.605957	33.268250
3151.004639	24.947401
3150.403320	8.314539
3149.801758	29.096470
3149.200195	29.092054
3148.598633	20.776886
3147.996826	24.928480
3147.395020	24.924696
3146.793213	12.460457
3146.191162	29.069988
3145.589111	8.304450
3144.986816	29.061163
3144.384766	41.509647
3143.782227	4.150334
3143.179932	24.898228
3142.577393	-4.149075
3141.974609	16.593779
3141.371826	12.443444
3140.769043	49.766220
3140.166260	33.172443
3139.563232	8.291851
3138.960205	29.017073
3138.356934	24.868000
3137.753662	29.008261
3137.150391	24.860447
3136.546875	20.713892
3135.943359	24.852896
3135.339600	12.424561
3134.735840	24.845346
3134.132080	24.841572
3133.528076	28.977430
3132.924072	33.112034
3132.320068	20.691875
3131.715820	0.000000
3131.111572	28.959824
3130.507080	41.364891
3129.902588	28.951023
3129.298096	28.946623
3128.693604	45.480637
3128.088867	24.803850
3127.483887	45.466812
3126.878906	20.663591
3126.273926	28.924631
3125.668945	0.000000
3125.063721	37.177505
3124.458252	24.781237
3123.853027	28.907047
3123.247559	20.644751
3122.641846	16.513290
3122.036133	33.021557
3121.430420	16.508268
3120.824707	20.632196
3120.218750	28.880684
3119.612549	16.500738
3119.006592	20.622786
3118.400391	16.495718
3117.793945	4.123302
3117.187500	28.858727
3116.581055	32.976383
3115.974609	37.092789
3115.367920	24.724764
3114.760986	28.841169
3114.154297	41.195400
3113.547363	45.308044
3112.940186	32.946293
3112.333008	12.352980
3111.725830	24.702200
3111.118408	16.465626
3110.510986	28.810461
3109.903564	16.460615
3109.295898	24.687164
3108.688232	53.480713
3108.080566	45.246021
3107.472656	20.563244
3106.864746	24.672134
3106.256592	20.556982
3105.648438	24.664623
3105.040039	20.550724
3104.431885	28.766632
3103.823486	36.980038
3103.214844	32.866138
3102.606201	45.184059
3101.997559	20.535080
3101.388672	20.531952
3100.779785	20.528826
3100.170898	24.630838
3099.561768	28.731602
3098.952637	20.519445
3098.343262	36.929375
3097.733887	-4.102639
3097.124512	24.612083
3096.514893	28.709723
3095.905273	20.503819
3095.295410	32.801113
3094.685791	32.796112
3094.075684	12.296668
3093.465820	12.294794
3092.855713	12.292921
3092.245361	20.485079
3091.635254	4.096391
3091.024658	24.574600
3090.414307	24.570854
3089.803711	28.661627
3089.193115	8.187788
3088.582275	20.466349
3087.971436	20.463228
3087.360596	8.184044
3086.749512	28.639784
3086.138428	28.635418
3085.527100	24.540901
3084.915771	28.626684
3084.304443	20.444513
3083.692871	28.617952
3083.081299	40.876553
3082.469482	36.783287
3081.857910	24.518452
3081.245850	36.772064
3080.634033	32.681293
3080.021973	20.422693
3079.409668	8.167830
3078.797607	24.499754
3078.185059	20.413345
3077.572754	28.574324
3076.960205	24.488541
3076.347656	28.565603
3075.734863	32.641422
3075.122070	36.715996
3074.509033	12.236797
3073.895996	12.234929
3073.282959	36.699184
3072.669922	8.154130
3072.056641	24.458654
3071.443115	24.454920
3070.829834	4.075198
3070.216064	12.223727
3069.602539	12.221861
3068.988770	12.219995
3068.375000	32.581676
3067.760986	48.865051
3067.146973	16.285862
3066.532715	28.495907
3065.918701	28.491554
3065.304199	32.556805
3064.689941	36.620808
3064.075439	48.820286
3063.460693	16.270943
3062.846191	24.402685
3062.231445	16.265972
3061.616455	24.395229
3061.001465	16.261002
3060.386475	20.323147
3059.771240	32.512066
3059.156006	32.507095
3058.540771	48.753193
3057.925293	40.621452
3057.309814	16.246098
3056.694092	52.791748
3056.078369	16.241131
3055.462646	24.357973
3054.846680	28.413292
3054.230713	44.642632
3053.614502	12.173402
3052.998291	8.114361
3052.382080	48.678719
3051.765625	28.391579
3051.149170	16.221279
3050.532715	16.218798
3049.916016	20.270397
3049.299316	28.374216
3048.682373	16.211357
3048.065430	44.574417
3047.448486	16.206400
3046.831299	28.356861
3046.214111	12.151081
3045.596680	32.397926
3044.979248	24.294727
3044.361816	36.436516
3043.744141	28.335176
3043.126465	24.283577
3042.508545	20.233219
3041.890869	12.138073
3041.272705	28.317837
3040.654785	32.358288
3040.036621	32.353336
3039.418213	28.304838
3038.799805	44.472221
3038.181396	28.296173
3037.562988	12.125075
3036.944336	24.246437
3036.325439	16.161818
3035.706543	32.318687
3035.087646	60.588257
3034.468750	44.424587
3033.849609	44.417786
3033.230469	16.149448
3032.611084	20.183720
3031.991699	12.108377
3031.372070	40.355076
3030.752441	24.209337
3030.132813	36.308441
3029.513184	36.302883
3028.893066	8.066072
3028.273193	36.291759
3027.653076	44.349800
3027.032959	32.249458
3026.412598	52.397343
3025.792480	32.239578
3025.171875	20.146648
3024.551270	40.287125
3023.930664	20.140474
3023.310059	36.247299
3022.689209	20.134302
3022.068115	28.183702
3021.447266	20.128132
3020.826172	40.250092
3020.204834	24.146353
3019.583496	24.142653
3018.962158	20.115791
3018.340576	52.293041
3017.718994	16.087700
3017.097412	24.127850
3016.475586	24.124151
3015.853760	16.080301
3015.231689	32.155670
3014.609619	16.075369
3013.987549	20.091129
3013.365234	28.123268
3012.742920	28.118956
3012.120361	20.081886
3011.497803	36.141853
3010.875244	48.181744
3010.252441	32.116234
3009.629639	24.083481
3009.006836	16.053190
3008.383789	56.177547
3007.760498	32.096531
3007.137451	28.080154
3006.514160	16.043341
3005.890625	32.081757
3005.267090	36.086437
3004.643555	28.062922
3004.019775	20.041868
3003.395996	32.062065
3002.772217	48.085716
3002.148193	48.078335
3001.524170	24.035477
3000.899902	20.026489
3000.275635	24.028097
2999.651367	16.016273
2999.026855	52.044895
2998.402344	40.028385
2997.777588	36.020016
2997.152832	60.024139
2996.528076	20.004974
2995.903076	28.002663
2995.278076	31.998127
2994.653076	19.995758
2994.027832	31.988298
2993.402344	47.975079
2992.777100	39.973091
2992.151367	35.970253
2991.525879	31.968647
2990.900146	39.954670
2990.274414	43.943382
2989.648438	23.965435
2989.022461	31.949003
2988.396240	23.958071
2987.770264	23.954388
2987.143799	27.942492
2986.517578	59.867565
2985.891113	43.896133
2985.264404	35.909496
2984.637695	43.882641
2984.010986	43.875893
2983.384033	27.916731
2982.757080	31.899929
2982.130127	39.868782
2981.502930	15.945061
2980.875732	43.842175
2980.248291	47.820473
2979.620850	51.797546
2978.993408	23.902884
2978.365723	23.899206
2977.738037	15.930354
2977.110107	35.837784
2976.482178	27.869545
2975.854248	55.730515
2975.226074	47.761665
2974.597900	23.877159
2973.969482	63.662624
2973.341309	19.891510
2972.712646	39.776897
2972.083984	23.862467
2971.455322	47.717590
2970.826660	23.855124
2970.197754	23.851452
2969.568604	31.797043
2968.939697	43.714203
2968.310547	31.787254
2967.681152	31.782362
2967.051758	27.805286
2966.422363	23.829433
2965.792725	39.709610
2965.163086	35.733147
2964.533203	31.757906
2963.903564	47.629524
2963.273438	43.653675
2962.643311	35.711143
2962.013184	67.443993
2961.383057	47.600193
2960.752686	39.660717
2960.122314	27.758226
2959.491699	47.578205
2958.861084	47.570873
2958.230225	47.563545
2957.599609	59.445274
2956.968506	79.248154
2956.337646	35.656178
2955.706299	47.534245
2955.075195	55.448074
2954.443848	55.439529
2953.812500	59.390343
2953.180908	47.504951
2952.549316	35.623222
2951.917725	55.405365
2951.285889	47.482990
2950.653809	55.388287
2950.021973	47.468357
2949.389893	63.281384
2948.757568	51.408199
2948.125244	51.400272
2947.492920	86.971672
2946.860352	63.242371
2946.227783	63.232620
2945.595215	75.077156
2944.962402	55.311481
2944.329590	86.904640
2943.696533	82.941635
2943.063477	55.285896
2942.430420	122.399887
2941.797119	122.381004
2941.163574	102.626305
2940.530273	102.610474
2939.896729	98.648697
2939.262939	130.196182
2938.629150	106.507721
2937.995361	153.820755
2937.361328	126.192421
2936.727295	145.887482
2936.093262	137.980377
2935.458984	165.550888
2934.824707	173.407501
2934.190186	161.559326
2933.555664	200.933029
2932.921143	161.509460
2932.286377	161.484528
2931.651367	181.149796
2931.016602	129.935226
2930.381592	200.777985
2929.746338	200.746994
2929.111084	224.329651
2928.475830	165.270004
2927.840332	161.310089
2927.204834	224.225739
2926.569336	204.525223
2925.933594	192.695938
2925.297607	231.985794
2924.661865	204.430481
2924.025879	216.191147
2923.389648	239.738602
2922.753418	239.701569
2922.117188	204.304199
2921.480713	216.057602
2920.844238	235.662781
2920.207764	184.573990
2919.571045	192.398468
2918.934082	223.775879
2918.297363	211.965439
2917.660156	227.631409
2917.023193	207.975861
2916.385986	247.178391
2915.748779	203.988724
2915.111328	215.723953
2914.473877	247.063782
2913.836182	239.183517
2913.198486	223.464798
2912.560791	254.788879
2911.922852	246.911041
2911.284912	235.117020
2910.646729	231.162659
2910.008545	282.053162
2909.370361	231.091171
2908.731934	266.301178
2908.093506	262.344391
2907.455078	277.963745
2906.816406	274.006378
2906.177490	281.791565
2905.538574	293.487457
2904.899658	324.742554
2904.260498	324.692322
2903.621338	320.730713
2902.982178	359.788544
2902.342773	277.619934
2901.703369	363.586761
2901.063721	347.894775
2900.424072	410.374146
2899.784424	363.417999
2899.144531	406.340027
2898.504639	367.212036
2897.864502	347.625671
2897.224365	359.287750
2896.583984	413.897888
2895.943848	394.313354
2895.303223	398.155823
2894.662842	413.705719
2894.021973	386.325684
2893.381348	378.462524
2892.740479	366.700714
2892.099609	374.444855
2891.458496	405.585785
2890.817383	428.918518
2890.176025	436.649414
2889.534668	397.601257
2888.893311	401.437134
2888.251709	409.168640
2887.610107	479.237579
2886.968262	436.311340
2886.326416	447.928864
2885.684570	517.959167
2885.042480	513.985107
2884.400391	498.332581
2883.758057	544.966797
2883.115723	591.586548
2882.473389	579.820618
2881.830811	688.673462
2881.188232	797.492554
2880.545410	863.492249
2879.902588	921.693420
2879.259766	1018.760559
2878.616699	1041.929443
2877.973633	944.588013
2877.330322	897.802490
2876.687012	940.409180
2876.043457	714.911011
2875.399902	672.067505
2874.756348	668.079163
2874.112549	633.023315
2873.468750	578.563477
2872.824707	516.355774
2872.180664	489.103271
2871.536621	461.859222
2870.892334	446.265320
2870.248047	516.035461
2869.603760	415.091980
2868.958984	449.936432
2868.314453	418.841339
2867.669678	453.674408
2867.024902	453.604004
2866.379883	445.780914
2865.734863	426.332977
2865.089844	426.266815
2864.444580	453.322510
2863.799316	445.504272
2863.153809	418.321686
2862.508301	445.365967
2861.862549	456.913300
2861.216797	429.741547
2860.571045	522.577515
2859.925049	460.570862
2859.279053	510.806030
2858.632813	549.418152
2857.986572	529.990112
2857.340332	553.115479
2856.693848	518.223511
2856.047363	564.543945
2855.400635	610.849915
2854.753906	517.982117
2854.107178	637.714722
2853.460205	606.700989
2852.813232	660.699097
2852.166016	614.238770
2851.518799	652.768738
2850.871338	718.320251
2850.223877	745.238037
2849.576416	714.236328
2848.928711	802.908508
2848.281006	822.081421
2847.633301	941.580750
2846.985352	891.276001
2846.337158	964.434509
2845.688965	921.856079
2845.040771	998.843628
2844.392578	913.857666
2843.743896	929.136963
2843.095459	905.864075
2842.446777	967.389526
2841.798096	901.728943
2841.149170	809.118103
2840.500244	797.435242
2839.851074	735.683350
2839.202148	700.908630
2838.552734	685.397400
2837.903320	600.591980
2837.253906	592.799866
2836.604492	523.430176
2835.954834	415.600464
2835.304932	434.773590
2834.655029	430.859009
2834.005127	365.403900
2833.354980	346.118256
2832.704834	311.457977
2832.054688	284.497589
2831.404297	265.233490
2830.753906	257.505493
2830.103271	234.408813
2829.452637	245.898849
2828.801758	234.335861
2828.150879	184.366730
2827.500000	165.136154
2826.848877	157.430893
2826.197754	142.049667
2825.546387	180.413391
2824.895020	118.977539
2824.243408	141.983337
2823.591797	138.124451
2822.940186	118.921974
2822.288330	115.067863
2821.636475	126.554939
2820.984619	107.363228
2820.332520	99.678902
2819.680176	103.496582
2819.028076	95.815239
2818.375488	91.968307
2817.723145	80.459732
2817.070557	84.278015
2816.417725	80.434669
2815.764893	84.251762
2815.112061	72.751549
2814.458984	91.882378
2813.805908	111.007240
2813.152832	76.544785
2812.499512	91.839432
2811.845947	84.173027
2811.192383	103.287155
2810.538818	84.146790
2809.885010	87.957932
2809.231201	87.944221
2808.577393	87.930511
2807.923340	72.626930
2807.269287	53.506233
2806.614990	57.319172
2805.960693	68.772278
2805.306152	76.401733
2804.651611	57.292362
2803.997070	49.645638
2803.342285	64.911095
2802.687500	64.900970
2802.032471	83.976395
2801.377441	80.146782
2800.722412	76.318367
2800.067139	91.567757
2799.411621	49.591461
2798.756348	95.353317
2798.100586	53.389530
2797.445068	53.381199
2796.789307	83.871651
2796.133301	60.988049
2795.477539	64.789688
2794.821289	53.347889
2794.165283	80.009346
2793.509033	49.521866
2792.852539	34.279018
2792.196045	72.355522
2791.539551	57.113861
2790.882813	72.332932
2790.226074	60.902435
2789.569092	38.058079
2788.912109	76.104271
2788.255127	68.483154
2787.597900	79.884537
2786.940430	68.461769
2786.283203	57.042564
2785.625488	30.417950
2784.968018	68.429703
2784.310303	53.214787
2783.652588	68.408325
2782.994629	49.398296
2782.336426	56.989132
2781.678467	53.181545
2781.020264	83.557945
2780.361816	53.164932
2779.703369	60.750427
2779.044922	72.129860
2778.386230	64.527161
2777.727539	60.721954
2777.068604	83.479637
2776.409668	49.321171
2775.750732	53.106804
2775.091553	56.891254
2774.432373	68.258835
2773.772949	72.039726
2773.113525	64.446526
2772.453857	83.388344
2771.794189	49.267227
2771.134521	71.994690
2770.474609	53.040428
2769.814697	68.184174
2769.154541	56.811256
2768.494385	53.015549
2767.833984	53.007259
2767.173584	68.141533
2766.513184	75.700974
2765.852539	34.060108
2765.191895	37.838646
2764.531006	64.315636
2763.870117	60.522892
2763.209229	41.602978
2762.548096	37.814972
2761.886719	68.056305
2761.225586	60.485023
2760.563965	41.576946
2759.902588	56.686966
2759.240967	45.342476
2758.579102	90.670761
2757.917236	49.105640
2757.255371	45.321190
2756.593262	86.852020
2755.931152	71.736092
2755.269043	75.499855
2754.606689	71.713631
2753.944092	45.285728
2753.281494	60.371517
2752.618896	79.225212
2751.956055	64.124649
2751.293213	82.971848
2750.630371	60.333714
2749.967285	79.175598
2749.303955	33.927086
2748.640625	79.150795
2747.977295	71.601410
2747.313721	52.750668
2746.650146	90.415550
2745.986572	45.200695
2745.322754	64.024284
2744.658691	67.779800
2743.994873	86.593948
2743.330566	71.522926
2742.666504	82.803040
2742.002197	48.921402
2741.337646	94.064873
2740.673096	45.144066
2740.008545	90.273979
2739.343750	56.412392
2738.678955	75.204735
2738.013916	120.308708
2737.348877	101.494560
2736.683594	82.686310
2736.018311	93.946983
2735.353027	71.388512
2734.687500	105.187630
2734.021973	78.878349
2733.356201	63.843887
2732.690430	90.118416
2732.024658	63.823864
2731.358643	86.336395
2730.692383	112.595024
2730.026367	123.835098
2729.359863	123.815674
2728.693604	112.542046
2728.027100	86.268700
2727.360352	123.757408
2726.693604	116.238724
2726.026855	123.718575
2725.359863	127.447624
2724.692871	134.923370
2724.025635	134.902191
2723.358398	168.601273
2722.691162	149.844284
2722.023682	123.602127
2721.355957	131.072586
2720.688477	134.796356
2720.020508	149.750214
2719.352783	142.240372
2718.684814	145.960632
2718.016602	153.421692
2717.348389	153.397598
2716.680176	127.187798
2716.011719	123.427589
2715.343262	138.366776
2714.674561	149.562210
2714.005859	108.415581
2713.337158	153.253128
2712.668213	138.279877
2711.999023	145.731567
2711.329834	138.236435
2710.660645	130.743652
2709.991455	112.048378
2709.321777	123.233856
2708.652344	93.344315
2707.982666	119.461945
2707.312988	104.512779
2706.643066	141.816483
2705.972900	130.599915
2705.302979	111.925186
2704.632813	104.447090
2703.962402	126.808678
2703.291992	126.788742
2702.621582	74.569893
2701.950928	108.109344
2701.280273	119.274315
2700.609375	111.802086
2699.938477	100.606056
2699.267334	85.687981
2698.596191	115.474335
2697.925049	111.731781
2697.253662	93.095177
2696.582031	78.187653
2695.910645	96.788528
2695.239014	107.939461
2694.567139	107.922478
2693.895264	93.021988
2693.223145	85.566765
2692.551270	107.871552
2691.878906	78.101593
2691.206543	100.400536
2690.534180	92.948830
2689.861816	66.912628
2689.189209	89.202797
2688.516357	89.188759
2687.843506	104.037178
2687.170654	89.160690
2686.497559	70.574432
2685.824463	70.563324
2685.151123	81.692039
2684.477783	59.403042
2683.804199	66.817902
2683.130615	81.653465
2682.457031	96.484352
2681.783203	85.338104
2681.109375	85.324669
2680.435303	81.602043
2679.761230	74.171997
2679.086914	66.744286
2678.412598	103.808090
2677.738281	92.671196
2677.063721	74.125275
2676.389160	88.936317
2675.714355	77.807022
2675.039551	103.726349
2674.364502	77.782509
2673.689453	92.583633
2673.014404	77.757996
2672.339111	81.447922
2671.663574	74.031898
2670.988037	85.123268
2670.312500	81.409424
2669.636719	70.297058
2668.960938	77.684502
2668.285156	62.877541
2667.609131	70.263817
2666.932861	70.252739
2666.256592	55.453949
2665.580322	66.534248
2664.903809	92.394104
2664.227295	70.208450
2663.550781	73.891975
2662.874023	62.798275
2662.197021	70.175240
2661.520020	70.164169
2660.843018	81.229912
2660.165771	73.833725
2659.488525	73.822083
2658.811035	88.572517
2658.133545	66.418907
2657.455811	99.612648
2656.778076	81.153053
2656.100342	70.075668
2655.422363	84.815063
2654.744385	81.114647
2654.066162	88.474739
2653.387939	73.717316
2652.709473	88.446815
2652.031006	103.171669
2651.352539	103.155380
2650.673828	92.088486
2649.994873	81.025070
2649.316162	69.965149
2648.636963	69.954109
2647.958008	95.711555
2647.278809	55.209488
2646.599365	73.601028
2645.919922	84.627815
2645.240479	69.898895
2644.560791	80.922783
2643.880859	80.910004
2643.201172	62.511490
2642.520996	80.884445
2641.841064	55.139774
2641.160889	73.508087
2640.480469	58.797176
2639.800049	95.530319
2639.119629	80.820580
2638.438965	84.480888
2637.758301	66.105034
2637.077393	84.454193
2636.396484	99.126213
2635.715332	95.439781
2635.034180	95.424698
2634.353027	84.400818
2633.671631	40.359226
2632.989990	84.374138
2632.308350	80.692940
2631.626709	77.012901
2630.944824	66.000618
2630.262939	69.656311
