#Wave		#Intensity
3200.600830	46.308376
3200.007080	63.147785
3199.413086	67.347458
3198.819092	29.460058
3198.224854	37.871494
3197.630615	63.109615
3197.036377	58.893402
3196.442139	29.442251
3195.847656	54.670200
3195.252930	33.638115
3194.658447	46.245411
3194.063721	54.645405
3193.468750	37.825714
3192.873779	25.213329
3192.278809	50.419033
3191.683838	58.813313
3191.088623	58.804417
3190.493164	25.198082
3189.897949	50.388542
3189.302490	54.579330
3188.706787	79.757721
3188.111328	75.548515
3187.515381	83.930099
3186.919678	41.958702
3186.323730	67.123764
3185.727783	33.556805
3185.131592	62.909489
3184.535400	50.319977
3183.939209	58.697758
3183.342773	67.072998
3182.746338	25.148569
3182.149902	62.861908
3181.553223	50.281914
3180.956543	50.274303
3180.359619	79.588936
3179.762695	50.259087
3179.165771	54.439102
3178.568604	29.308924
3177.971436	62.795330
3177.374268	58.600101
3176.776855	54.406143
3176.179443	54.397903
3175.581787	25.102922
3174.984131	54.381432
3174.386475	58.555752
3173.788574	25.091520
3173.190674	37.631580
3172.592773	58.529152
3171.994629	16.720081
3171.396484	41.793873
3170.798340	58.502560
3170.199951	75.206184
3169.601563	54.307346
3169.002930	71.006538
3168.404297	45.938450
3167.805664	58.458260
3167.206787	37.574615
3166.607910	50.091896
3166.008789	25.042152
3165.409912	70.942017
3164.810547	41.724270
3164.211426	41.717949
3163.612061	75.080925
3163.012695	62.557957
3162.413086	20.849491
3161.813477	66.708260
3161.213623	58.360878
3160.614014	54.184029
3160.013916	29.171593
3159.414063	70.834557
3158.813965	70.823814
3158.213867	54.151176
3157.613525	49.978123
3157.013184	33.313694
3156.412598	49.962967
3155.812256	58.281288
3155.211426	62.434765
3154.610840	29.131805
3154.010010	70.737938
3153.409180	91.529327
3152.808105	37.438137
3152.207031	83.183235
3151.605957	58.219433
3151.004639	33.263199
3150.403320	45.729961
3149.801758	49.879662
3149.200195	33.248062
3148.598633	74.796791
3147.996826	16.618986
3147.395020	49.849392
3146.793213	41.534859
3146.191162	78.904251
3145.589111	37.370026
3144.986816	41.515949
3144.384766	49.811577
3143.782227	33.202675
3143.179932	16.598818
3142.577393	37.341671
3141.974609	53.929779
3141.371826	66.365036
3140.769043	62.207775
3140.166260	58.051773
3139.563232	33.167404
3138.960205	49.743553
3138.356934	37.301998
3137.753662	37.296333
3137.150391	62.151115
3136.546875	24.856670
3135.943359	57.990089
3135.339600	41.415199
3134.735840	37.268017
3134.132080	45.542881
3133.528076	37.256695
3132.924072	49.668049
3132.320068	41.383751
3131.715820	70.341690
3131.111572	49.645412
3130.507080	62.047337
3129.902588	90.988930
3129.298096	70.298943
3128.693604	45.480637
3128.088867	70.277573
3127.483887	62.000202
3126.878906	53.725338
3126.273926	78.509712
3125.668945	45.446083
3125.063721	33.046673
3124.458252	33.041649
3123.853027	82.591560
3123.247559	61.934254
3122.641846	70.181480
3122.036133	66.043114
3121.430420	20.635336
3120.824707	33.011517
3120.218750	61.887180
3119.612549	20.625921
3119.006592	53.619240
3118.400391	49.487156
3117.793945	53.602932
3117.187500	45.349426
3116.581055	53.586624
3115.974609	53.578472
3115.367920	61.811909
3114.760986	41.201672
3114.154297	90.629883
3113.547363	53.545872
3112.940186	82.365730
3112.333008	53.529579
3111.725830	57.638466
3111.118408	74.095322
3110.510986	45.273582
3109.903564	49.381844
3109.295898	37.030746
3108.688232	65.822418
3108.080566	24.679649
3107.472656	61.689732
3106.864746	32.896179
3106.256592	16.445585
3105.648438	36.996937
3105.040039	28.771013
3104.431885	45.204708
3103.823486	49.306717
3103.214844	65.732277
3102.606201	78.045189
3101.997559	86.247337
3101.388672	53.383076
3100.779785	86.221069
3100.170898	57.471958
3099.561768	57.463203
3098.952637	45.142780
3098.343262	49.239166
3097.733887	32.821110
3097.124512	45.122150
3096.514893	65.622223
3095.905273	36.906876
3095.295410	53.301807
3094.685791	53.293686
3094.075684	57.384453
3093.465820	61.473972
3092.855713	40.976402
3092.245361	28.679110
3091.635254	40.963913
3091.024658	40.957668
3090.414307	49.141708
3089.803711	36.850662
3089.193115	4.093894
3088.582275	53.212509
3087.971436	77.760269
3087.360596	49.104259
3086.749512	77.736557
3086.138428	40.907738
3085.527100	28.631050
3084.915771	61.342896
3084.304443	40.889027
3083.692871	65.412460
3083.081299	40.876553
3082.469482	20.435160
3081.857910	65.382538
3081.245850	53.115208
3080.634033	57.192265
3080.021973	81.690773
3079.409668	44.923069
3078.797607	16.333170
3078.185059	77.570717
3077.572754	53.066601
3076.960205	53.058502
3076.347656	93.858414
3075.734863	97.924263
3075.122070	32.636440
3074.509033	40.789322
3073.895996	61.174648
3073.282959	73.398369
3072.669922	61.155972
3072.056641	73.375961
3071.443115	81.516403
3070.829834	65.203163
3070.216064	28.522030
3069.602539	16.295815
3068.988770	61.099972
3068.375000	40.727093
3067.760986	48.865051
3067.146973	40.714657
3066.532715	44.779282
3065.918701	69.193771
3065.304199	44.765602
3064.689941	44.758766
3064.075439	52.888645
3063.460693	28.474150
3062.846191	24.402685
3062.231445	44.731422
3061.616455	32.526974
3061.001465	32.522003
3060.386475	56.904808
3059.771240	69.088142
3059.156006	52.824032
3058.540771	52.815960
3057.925293	64.994324
3057.309814	73.107437
3056.694092	40.609035
3056.078369	48.723396
3055.462646	44.656284
3054.846680	44.649460
3054.230713	56.817898
3053.614502	68.982613
3052.998291	44.628983
3052.382080	28.395920
3051.765625	52.727219
3051.149170	48.663834
3050.532715	36.492294
3049.916016	36.486713
3049.299316	40.534595
3048.682373	52.686913
3048.065430	48.626637
3047.448486	56.722397
3046.831299	36.458820
3046.214111	36.453243
3045.596680	36.447666
3044.979248	56.687698
3044.361816	36.436516
3043.744141	64.766113
3043.126465	80.945259
3042.508545	64.746300
3041.890869	72.828438
3041.272705	48.544865
3040.654785	64.716576
3040.036621	52.574173
3039.418213	40.435482
3038.799805	36.386364
3038.181396	24.253862
3037.562988	20.208458
3036.944336	60.616096
3036.325439	56.566360
3035.706543	48.478027
3035.087646	40.392174
3034.468750	88.849174
3033.849609	4.037981
3033.230469	32.298897
3032.611084	60.551159
3031.991699	44.397381
3031.372070	52.461597
3030.752441	20.174448
3030.132813	68.582611
3029.513184	36.302883
3028.893066	76.627678
3028.273193	56.453850
3027.653076	24.190800
3027.032959	24.187094
3026.412598	68.519600
3025.792480	44.329418
3025.171875	36.263969
3024.551270	20.143562
3023.930664	88.618088
3023.310059	64.439644
3022.689209	68.456627
3022.068115	28.183702
3021.447266	36.230637
3020.826172	64.400146
3020.204834	40.243923
3019.583496	72.427956
3018.962158	72.416855
3018.340576	28.157791
3017.718994	68.372726
3017.097412	20.106541
3016.475586	60.310375
3015.853760	64.321205
3015.231689	64.311340
3014.609619	40.188423
3013.987549	44.200485
3013.365234	68.299362
3012.742920	28.118956
3012.120361	60.245663
3011.497803	12.047284
3010.875244	40.151455
3010.252441	80.290588
3009.629639	48.166962
3009.006836	52.172871
3008.383789	72.228271
3007.760498	64.193062
3007.137451	52.148857
3006.514160	84.227539
3005.890625	52.132854
3005.267090	36.086437
3004.643555	32.071911
3004.019775	44.092110
3003.395996	48.093098
3002.772217	56.100002
3002.148193	44.071808
3001.524170	52.076866
3000.899902	72.095360
3000.275635	48.056194
2999.651367	48.048817
2999.026855	48.041439
2998.402344	32.022709
2997.777588	36.020016
2997.152832	44.017704
2996.528076	52.012932
2995.903076	36.003422
2995.278076	59.996490
2994.653076	63.986427
2994.027832	27.989761
2993.402344	27.985462
2992.777100	39.973091
2992.151367	27.976864
2991.525879	51.949051
2990.900146	51.941071
2990.274414	51.933090
2989.648438	71.896309
2989.022461	19.968126
2988.396240	35.937107
2987.770264	87.832756
2987.143799	27.942492
2986.517578	67.849907
2985.891113	43.896133
2985.264404	79.798882
2984.637695	51.861301
2984.010986	67.808197
2983.384033	39.881042
2982.757080	59.812370
2982.130127	59.803173
2981.502930	51.821445
2980.875732	35.870869
2980.248291	59.775589
2979.620850	27.890985
2978.993408	27.886696
2978.365723	51.781616
2977.738037	43.808475
2977.110107	59.729641
2976.482178	47.776363
2975.854248	19.903755
2975.226074	47.761665
2974.597900	39.795265
2973.969482	67.641541
2973.341309	51.717926
2972.712646	51.709969
2972.083984	63.633244
2971.455322	55.670521
2970.826660	51.686100
2970.197754	71.554359
2969.568604	39.746304
2968.939697	35.766167
2968.310547	87.414948
2967.681152	55.619133
2967.051758	55.610573
2966.422363	35.744152
2965.792725	35.738647
2965.163086	99.258736
2964.533203	47.636860
2963.903564	31.753016
2963.273438	47.622189
2962.643311	59.518570
2962.013184	55.542114
2961.383057	83.300339
2960.752686	67.423225
2960.122314	55.516453
2959.491699	39.648502
2958.861084	59.463593
2958.230225	63.418064
2957.599609	75.297348
2956.968506	31.699263
2956.337646	55.465164
2955.706299	39.611870
2955.075195	47.526920
2954.443848	55.439529
2953.812500	47.512276
2953.180908	79.174919
2952.549316	39.581360
2951.917725	43.532787
2951.285889	39.569160
2950.653809	59.344593
2950.021973	51.424053
2949.389893	55.371212
2948.757568	47.453724
2948.125244	67.215744
2947.492920	63.252121
2946.860352	67.195015
2946.227783	35.568348
2945.595215	67.174301
2944.962402	63.213120
2944.329590	67.153580
2943.696533	75.042427
2943.063477	71.081863
2942.430420	59.225750
2941.797119	75.007713
2941.163574	106.573471
2940.530273	59.198349
2939.896729	55.243271
2939.262939	90.742798
2938.629150	27.613113
2937.995361	86.770676
2937.361328	47.322159
2936.727295	55.200665
2936.093262	74.903633
2935.458984	82.775444
2934.824707	51.234035
2934.190186	98.511787
2933.555664	63.037811
2932.921143	78.785103
2932.286377	90.588882
2931.651367	98.450974
2931.016602	90.560913
2930.381592	86.610115
2929.746338	90.532959
2929.111084	47.227295
2928.475830	90.505005
2927.840332	59.015888
2927.204834	86.543266
2926.569336	94.396263
2925.933594	86.516541
2925.297607	94.367104
2924.661865	78.627106
2924.025879	70.753471
2923.389648	106.113808
2922.753418	121.815552
2922.117188	98.223175
2921.480713	106.064636
2920.844238	54.987984
2920.207764	62.833698
2919.571045	98.162483
2918.934082	74.591965
2918.297363	82.431007
2917.660156	82.418266
2917.023193	94.177750
2916.385986	102.010124
2915.748779	58.842899
2915.111328	105.900848
2914.473877	78.432945
2913.836182	74.499786
2913.198486	105.851746
2912.560791	101.915550
2911.922852	90.142128
2911.284912	86.209572
2910.646729	97.950279
2910.008545	78.348106
2909.370361	66.585594
2908.731934	58.742905
2908.093506	78.311760
2907.455078	74.384666
2906.816406	90.030670
2906.177490	97.844292
2905.538574	86.089653
2904.899658	62.600971
2904.260498	97.798889
2903.621338	129.074554
2902.982178	74.304161
2902.342773	74.292664
2901.703369	132.924194
2901.063721	97.723251
2900.424072	93.799805
2899.784424	97.693008
2899.144531	121.120583
2898.504639	128.914856
2897.864502	113.271278
2897.224365	105.443146
2896.583984	93.712730
2895.943848	78.081856
2895.303223	89.780235
2894.662842	124.892288
2894.021973	74.143318
2893.381348	105.345238
2892.740479	101.427856
2892.099609	128.715424
2891.458496	93.596718
2890.817383	89.682968
2890.176025	116.959663
2889.534668	144.227905
2888.893311	140.308121
2888.251709	109.111641
2887.610107	97.406013
2886.968262	128.556015
2886.326416	136.326172
2885.684570	112.938469
2885.042480	144.071579
2884.400391	132.369598
2883.758057	151.812180
2883.115723	151.788651
2882.473389	124.525238
2881.830811	132.287567
2881.188232	140.047470
2880.545410	202.259445
2879.902588	194.450089
2879.259766	178.866348
2878.616699	194.389816
2877.973633	178.810898
2877.330322	190.442947
2876.687012	190.413422
2876.043457	190.383911
2875.399902	170.930466
2874.756348	120.409615
2874.112549	124.274521
2873.468750	124.255249
2872.824707	112.588852
2872.180664	178.561523
2871.536621	128.078613
2870.892334	85.372498
2870.248047	85.359253
2869.603760	77.587288
2868.958984	116.362869
2868.314453	89.197693
2867.669678	131.837006
2867.024902	104.677849
2866.379883	127.919739
2865.734863	127.899887
2865.089844	135.630341
2864.444580	92.989235
2863.799316	127.840355
2863.153809	104.580421
2862.508301	120.055176
2861.862549	120.036545
2861.216797	147.118729
2860.571045	116.128334
2859.925049	112.239960
2859.279053	170.268677
2858.632813	131.550827
2857.986572	139.267471
2857.340332	104.434387
2856.693848	154.693588
2856.047363	135.335876
2855.400635	150.779404
2854.753906	173.949219
2854.107178	123.678009
2853.460205	104.337112
2852.813232	135.230804
2852.166016	173.841171
2851.518799	139.051331
2850.871338	181.511032
2850.223877	142.869461
2849.576416	181.454636
2848.928711	193.006851
2848.281006	158.241028
2847.633301	204.523682
2846.985352	138.900162
2846.337158	192.886902
2845.688965	173.571228
2845.040771	192.826950
2844.392578	200.508865
2843.743896	181.200989
2843.095459	208.156006
2842.446777	158.019806
2841.798096	188.823578
2841.149170	138.705963
2840.500244	157.946106
2839.851074	146.366318
2839.202148	184.855026
2838.552734	127.068062
2837.903320	134.748199
2837.253906	119.329842
2836.604492	134.706284
2835.954834	138.533493
2835.304932	150.054596
2834.655029	111.561707
2834.005127	80.773499
2833.354980	123.064270
2832.704834	107.664482
2832.054688	99.958611
2831.404297	96.099091
2830.753906	92.240776
2830.103271	69.169815
2829.452637	88.369896
2828.801758	57.623573
2828.150879	61.455578
2827.500000	96.009392
2826.848877	80.635338
2826.197754	49.909344
2825.546387	95.964569
2824.895020	76.759705
2824.243408	46.048653
2823.591797	76.735802
2822.940186	46.034313
2822.288330	69.040718
2821.636475	57.524971
2820.984619	72.853615
2820.332520	72.842270
2819.680176	57.498100
2819.028076	53.656536
2818.375488	61.312202
2817.723145	61.302654
2817.070557	57.462284
2816.417725	72.774223
2815.764893	65.103638
2815.112061	80.409607
2814.458984	84.225510
2813.805908	76.556717
2813.152832	72.717545
2812.499512	57.399643
2811.845947	72.694885
2811.192383	34.429054
2810.538818	72.672226
2809.885010	53.539612
2809.231201	107.062531
2808.577393	42.053722
2807.923340	53.514576
2807.269287	80.259354
2806.614990	57.319172
2805.960693	26.744776
2805.306152	72.581642
2804.651611	42.014400
2803.997070	106.929070
2803.342285	30.546398
2802.687500	34.359341
2802.032471	72.525070
2801.377441	64.880730
2800.722412	87.766121
2800.067139	64.860489
2799.411621	53.406189
2798.756348	41.955460
2798.100586	38.135376
2797.445068	53.381199
2796.789307	91.496346
2796.133301	53.364544
2795.477539	41.922741
2794.821289	57.158451
2794.165283	99.059189
2793.509033	91.424980
2792.852539	91.410713
2792.196045	57.122776
2791.539551	87.574585
2790.882813	95.174911
2790.226074	53.289631
2789.569092	34.252270
2788.912109	49.467777
2788.255127	68.483154
2787.597900	64.668434
2786.940430	72.265198
2786.283203	110.282288
2785.625488	34.220192
2784.968018	34.214851
2784.310303	60.816898
2783.652588	79.809715
2782.994629	56.998035
2782.336426	91.182610
2781.678467	68.376274
2781.020264	60.769413
2780.361816	49.367435
2779.703369	75.938034
2779.044922	79.722481
2778.386230	49.344299
2777.727539	72.107323
2777.068604	64.506996
2776.409668	60.702976
2775.750732	72.073517
2775.091553	49.305756
2774.432373	53.090206
2773.772949	64.456604
2773.113525	72.028465
2772.453857	64.436447
2771.794189	60.636589
2771.134521	53.048721
2770.474609	37.886021
2769.814697	49.244122
2769.154541	68.173508
2768.494385	49.228725
2767.833984	56.793491
2767.173584	41.642048
2766.513184	56.775726
2765.852539	37.844566
2765.191895	41.622509
2764.531006	45.399273
2763.870117	49.174850
2763.209229	56.731335
2762.548096	52.940964
2761.886719	60.494492
2761.225586	45.363770
2760.563965	56.695839
2759.902588	49.128704
2759.240967	86.906410
2758.579102	75.558968
2757.917236	56.660355
2757.255371	60.428253
2756.593262	56.642620
2755.931152	64.184921
2755.269043	83.049835
2754.606689	30.195213
2753.944092	83.023834
2753.281494	56.598297
2752.618896	82.997841
2751.956055	33.948345
2751.293213	64.114609
2750.630371	49.021141
2749.967285	71.635063
2749.303955	64.084496
2748.640625	48.998112
2747.977295	82.906898
2747.313721	94.197624
2746.650146	37.673145
2745.986572	71.567764
2745.322754	60.258152
2744.658691	86.607521
2743.994873	56.474316
2743.330566	75.287292
2742.666504	79.039268
2742.002197	94.079620
2741.337646	48.913734
2740.673096	33.858047
2740.008545	56.421234
2739.343750	67.694870
2738.678955	86.485443
2738.013916	67.673653
2737.348877	75.181160
2736.683594	56.377029
2736.018311	78.915466
2735.353027	75.145805
2734.687500	56.350513
2734.021973	86.390572
2733.356201	67.599411
2732.690430	67.588814
2732.024658	71.332558
2731.358643	48.798832
2730.692383	86.322853
2730.026367	37.525787
2729.359863	93.799751
2728.693604	45.016819
2728.027100	52.511383
2727.360352	67.504044
2726.693604	78.742355
2726.026855	44.988575
2725.359863	59.975353
2724.692871	59.965942
2724.025635	63.703815
2723.358398	93.667374
2722.691162	74.922142
2722.023682	67.419342
2721.355957	67.408760
2720.688477	63.653835
2720.020508	67.387596
2719.352783	63.633854
2718.684814	74.851601
2718.016602	112.259773
2717.348389	108.500748
2716.680176	41.148991
2716.011719	78.544830
2715.343262	78.532494
2714.674561	59.824886
2714.005859	59.815491
2713.337158	78.495499
2712.668213	56.059410
2711.999023	56.050602
2711.329834	56.041798
2710.660645	78.446190
2709.991455	70.963974
2709.321777	44.812309
2708.652344	63.474133
2707.982666	89.596458
2707.312988	55.988987
2706.643066	55.980190
2705.972900	55.971390
2705.302979	55.962593
2704.632813	59.684052
2703.962402	63.404339
2703.291992	55.936211
2702.621582	78.298386
2701.950928	37.279083
2701.280273	48.455189
2700.609375	40.994099
2699.938477	44.713802
2699.267334	74.511284
2698.596191	81.949524
2697.925049	67.039070
2697.253662	59.580914
2696.582031	48.401878
2695.910645	63.284809
2695.239014	66.996902
2694.567139	59.543438
2693.895264	52.092312
2693.223145	55.804409
2692.551270	59.515339
2691.878906	52.067730
2691.206543	59.496613
2690.534180	66.923157
2689.861816	55.760521
2689.189209	81.769234
2688.516357	78.040161
2687.843506	63.165428
2687.170654	92.875717
2686.497559	55.716660
2685.824463	37.138592
2685.151123	74.265488
2684.477783	81.679184
2683.804199	51.969479
2683.130615	48.249775
2682.457031	63.085922
2681.783203	66.786346
2681.109375	59.356289
2680.435303	66.765312
2679.761230	63.046196
2679.086914	66.744286
2678.412598	74.148636
2677.738281	55.602715
2677.063721	59.300220
2676.389160	55.585201
2675.714355	48.166252
2675.039551	81.499275
2674.364502	62.966793
2673.689453	29.626762
2673.014404	59.244190
2672.339111	59.234852
2671.663574	59.225517
2670.988037	74.020233
2670.312500	55.506424
2669.636719	66.597214
2668.960938	59.188190
2668.285156	66.576218
2667.609131	70.263817
2666.932861	44.370152
2666.256592	70.241669
2665.580322	36.963470
2664.903809	96.089867
2664.227295	77.598808
2663.550781	77.586571
2662.874023	62.798275
2662.197021	66.481804
2661.520020	70.164169
2660.843018	77.537643
2660.165771	81.217094
2659.488525	70.130974
2658.811035	36.905216
2658.133545	92.248489
2657.455811	59.029716
2656.778076	66.397957
2656.100342	77.452057
2655.422363	55.314171
2654.744385	62.679501
2654.066162	88.474739
2653.387939	47.916256
2652.709473	84.761536
2652.031006	84.748154
2651.352539	69.998299
2650.673828	73.670784
2649.994873	51.561409
2649.316162	66.282776
2648.636963	55.226925
2647.958008	58.899422
2647.278809	55.209488
2646.599365	66.240929
2645.919922	36.794704
2645.240479	95.651123
2644.560791	58.852932
2643.880859	69.876816
2643.201172	62.511490
2642.520996	73.531311
2641.841064	69.843712
2641.160889	88.209702
2640.480469	40.423061
2639.800049	66.136375
2639.119629	77.146912
2638.438965	77.134727
2637.758301	55.087524
2637.077393	99.141876
2636.396484	58.741459
2635.715332	47.719891
2635.034180	47.712349
2634.353027	58.713612
2633.671631	36.690208
2632.989990	73.368813
2632.308350	77.025078
2631.626709	58.676495
2630.944824	80.667427
2630.262939	87.986916
2629.581055	62.314209
2628.898926	62.304359
2628.216553	47.636974
2627.534180	73.276062
2626.851807	65.938026
2626.169189	73.252892
