#Wave		#Intensity
3200.600830	8.419704
3200.007080	8.419704
3199.413086	-8.418432
3198.819092	4.208580
3198.224854	21.039719
3197.630615	12.621923
3197.036377	4.206672
3196.442139	4.206036
3195.847656	16.821600
3195.252930	0.000000
3194.658447	29.428900
3194.063721	16.813971
3193.468750	4.202857
3192.873779	-4.202222
3192.278809	12.604758
3191.683838	16.803802
3191.088623	4.200315
3190.493164	16.798721
3189.897949	16.796181
3189.302490	-8.396820
3188.706787	12.593325
3188.111328	8.394279
3187.515381	-4.196505
3186.919678	20.979351
3186.323730	20.976177
3185.727783	8.389201
3185.131592	16.775864
3184.535400	16.773325
3183.939209	-4.192697
3183.342773	0.000000
3182.746338	25.148569
3182.149902	4.190794
3181.553223	37.711437
3180.956543	12.568576
3180.359619	20.944456
3179.762695	25.129543
3179.165771	0.000000
3178.568604	33.495914
3177.971436	8.372710
3177.374268	0.000000
3176.776855	8.370175
3176.179443	25.106726
3175.581787	-8.367641
3174.984131	8.366374
3174.386475	8.365108
3173.788574	8.363840
3173.190674	16.725147
3172.592773	4.180654
3171.994629	29.260143
3171.396484	16.717548
3170.798340	12.536263
3170.199951	33.424969
3169.601563	12.532465
3169.002930	0.000000
3168.404297	16.704891
3167.805664	16.702360
3167.206787	20.874786
3166.607910	16.697298
3166.008789	12.521076
3165.409912	8.346119
3164.810547	4.172427
3164.211426	25.030769
3163.612061	16.684650
3163.012695	-4.170530
3162.413086	-4.169898
3161.813477	12.507798
3161.213623	29.180439
3160.614014	8.336004
3160.013916	-4.167370
3159.414063	8.333477
3158.813965	24.996641
3158.213867	8.330950
3157.613525	24.989061
3157.013184	16.656847
3156.412598	16.654322
3155.812256	8.325898
3155.211426	0.000000
3154.610840	4.161686
3154.010010	16.644220
3153.409180	0.000000
3152.808105	4.159793
3152.207031	4.159162
3151.605957	-8.317062
3151.004639	0.000000
3150.403320	8.314539
3149.801758	4.156639
3149.200195	12.468023
3148.598633	4.155377
3147.996826	8.309493
3147.395020	4.154116
3146.793213	0.000000
3146.191162	4.152855
3145.589111	-8.304450
3144.986816	0.000000
3144.384766	0.000000
3143.782227	24.902008
3143.179932	20.748522
3142.577393	16.596298
3141.974609	0.000000
3141.371826	8.295630
3140.769043	0.000000
3140.166260	0.000000
3139.563232	4.145926
3138.960205	-8.290592
3138.356934	-8.289333
3137.753662	-12.432112
3137.150391	12.430223
3136.546875	4.142778
3135.943359	0.000000
3135.339600	12.424561
3134.735840	12.422673
3134.132080	-4.140262
3133.528076	20.698164
3132.924072	24.834024
3132.320068	-4.138375
3131.715820	4.137746
3131.111572	0.000000
3130.507080	16.545956
3129.902588	-8.271721
3129.298096	12.405696
3128.693604	16.538414
3128.088867	-8.267950
3127.483887	24.800079
3126.878906	8.265437
3126.273926	24.792542
3125.668945	8.262924
3125.063721	-4.130834
3124.458252	8.260412
3123.853027	33.036625
3123.247559	-12.386850
3122.641846	20.641613
3122.036133	12.383084
3121.430420	20.635336
3120.824707	-4.126440
3120.218750	16.503248
3119.612549	8.250369
3119.006592	24.747341
3118.400391	20.619648
3117.793945	12.369907
3117.187500	0.000000
3116.581055	12.366144
3115.974609	4.121421
3115.367920	16.483175
3114.760986	-4.120167
3114.154297	8.239080
3113.547363	20.594566
3112.940186	4.118287
3112.333008	20.588299
3111.725830	12.351100
3111.118408	8.232813
3110.510986	12.347341
3109.903564	12.345461
3109.295898	4.114527
3108.688232	-4.113901
3108.080566	8.226550
3107.472656	-4.112648
3106.864746	20.560112
3106.256592	8.222793
3105.648438	24.664623
3105.040039	-8.220289
3104.431885	8.219038
3103.823486	24.653358
3103.214844	0.000000
3102.606201	0.000000
3101.997559	-4.107016
3101.388672	0.000000
3100.779785	-4.105765
3100.170898	12.315419
3099.561768	20.522572
3098.952637	4.103889
3098.343262	8.206528
3097.733887	4.102639
3097.124512	24.612083
3096.514893	12.304167
3095.905273	0.000000
3095.295410	20.500694
3094.685791	-8.199028
3094.075684	4.098889
3093.465820	16.393059
3092.855713	8.195280
3092.245361	12.291047
3091.635254	20.481956
3091.024658	16.383068
3090.414307	28.665997
3089.803711	4.094518
3089.193115	16.375576
3088.582275	20.466349
3087.971436	4.092646
3087.360596	-4.092022
3086.749512	20.456989
3086.138428	-12.272322
3085.527100	-4.090150
3084.915771	0.000000
3084.304443	28.622318
3083.692871	16.353115
3083.081299	32.701244
3082.469482	16.348127
3081.857910	8.172817
3081.245850	-4.085785
3080.634033	20.425810
3080.021973	4.084538
3079.409668	16.335661
3078.797607	12.249877
3078.185059	8.165339
3077.572754	16.328186
3076.960205	24.488541
3076.347656	20.404003
3075.734863	12.240533
3075.122070	12.238665
3074.509033	-20.394661
3073.895996	-4.078310
3073.282959	8.155375
3072.669922	0.000000
3072.056641	-16.305769
3071.443115	20.379101
3070.829834	-4.075198
3070.216064	4.074575
3069.602539	32.591629
3068.988770	0.000000
3068.375000	12.218128
3067.760986	0.000000
3067.146973	61.071983
3066.532715	12.212531
3065.918701	12.210666
3065.304199	24.417603
3064.689941	16.275915
3064.075439	8.136714
3063.460693	4.067736
3062.846191	20.335571
3062.231445	32.531944
3061.616455	-4.065872
3061.001465	40.652504
3060.386475	4.064629
3059.771240	12.192024
3059.156006	20.316936
3058.540771	16.251064
3057.925293	24.372871
3057.309814	20.307623
3056.694092	4.060904
3056.078369	8.120565
3055.462646	0.000000
3054.846680	24.354250
3054.230713	16.233685
3053.614502	12.173402
3052.998291	0.000000
3052.382080	12.169680
3051.765625	4.055940
3051.149170	24.331917
3050.532715	4.054699
3049.916016	16.216318
3049.299316	-24.320757
3048.682373	16.211357
3048.065430	20.261099
3047.448486	8.103200
3046.831299	16.203920
3046.214111	16.201441
3045.596680	12.149222
3044.979248	-12.147364
3044.361816	24.291010
3043.744141	40.478825
3043.126465	28.330841
3042.508545	32.373150
3041.890869	4.046024
3041.272705	8.090811
3040.654785	20.223930
3040.036621	12.132502
3039.418213	12.130645
3038.799805	32.343433
3038.181396	20.211552
3037.562988	28.291842
3036.944336	20.205364
3036.325439	32.323635
3035.706543	20.199179
3035.087646	24.235304
3034.468750	16.154396
3033.849609	16.151922
3033.230469	20.186810
3032.611084	28.257206
3031.991699	-4.036126
3031.372070	28.248552
3030.752441	16.139557
3030.132813	-4.034271
3029.513184	16.134615
3028.893066	0.000000
3028.273193	24.194508
3027.653076	28.222601
3027.032959	20.155912
3026.412598	8.061130
3025.792480	20.149736
3025.171875	16.117319
3024.551270	12.086137
3023.930664	8.056190
3023.310059	12.082433
3022.689209	16.107441
3022.068115	20.131216
3021.447266	28.179384
3020.826172	20.125046
3020.204834	12.073176
3019.583496	32.190201
3018.962158	4.023159
3018.340576	12.067625
3017.718994	28.153475
3017.097412	20.106541
3016.475586	8.041384
3015.853760	16.080301
3015.231689	4.019459
3014.609619	4.018842
3013.987549	20.091129
3013.365234	28.123268
3012.742920	36.152943
3012.120361	16.065510
3011.497803	0.000000
3010.875244	24.090872
3010.252441	0.000000
3009.629639	12.041740
3009.006836	8.026595
3008.383789	36.114136
3007.760498	28.084463
3007.137451	36.103054
3006.514160	32.086681
3005.890625	32.081757
3005.267090	20.048021
3004.643555	24.053932
3004.019775	16.033493
3003.395996	20.038792
3002.772217	28.050001
3002.148193	20.032640
3001.524170	28.041389
3000.899902	0.000000
3000.275635	12.014049
2999.651367	-4.004068
2999.026855	36.031082
2998.402344	4.002839
2997.777588	20.011120
2997.152832	20.008047
2996.528076	12.002985
2995.903076	12.001142
2995.278076	7.999532
2994.653076	-3.999152
2994.027832	0.000000
2993.402344	23.987539
2992.777100	27.981163
2992.151367	15.986779
2991.525879	0.000000
2990.900146	31.963736
2990.274414	43.943382
2989.648438	27.959675
2989.022461	19.968126
2988.396240	35.937107
2987.770264	3.992398
2987.143799	11.975353
2986.517578	27.938196
2985.891113	23.943346
2985.264404	3.989944
2984.637695	27.925316
2984.010986	19.943588
2983.384033	35.892941
2982.757080	31.899929
2982.130127	27.908148
2981.502930	15.945061
2980.875732	31.885218
2980.248291	19.925198
2979.620850	23.906559
2978.993408	11.951442
2978.365723	15.932804
2977.738037	35.843296
2977.110107	11.945928
2976.482178	23.888182
2975.854248	23.884506
2975.226074	23.880833
2974.597900	39.795265
2973.969482	15.915656
2973.341309	39.783020
2972.712646	3.977690
2972.083984	27.839544
2971.455322	27.835260
2970.826660	39.758537
2970.197754	39.752422
2969.568604	11.923891
2968.939697	35.766167
2968.310547	31.787254
2967.681152	15.891181
2967.051758	0.000000
2966.422363	39.715721
2965.792725	27.796726
2965.163086	27.792446
2964.533203	43.667122
2963.903564	7.938254
2963.273438	19.842579
2962.643311	39.679047
2962.013184	19.836470
2961.383057	27.766779
2960.752686	31.728575
2960.122314	15.861844
2959.491699	23.789103
2958.861084	39.642395
2958.230225	19.818144
2957.599609	47.556221
2956.968506	43.586487
2956.337646	47.541569
2955.706299	27.728310
2955.075195	39.605766
2954.443848	39.599663
2953.812500	31.674849
2953.180908	31.669968
2952.549316	35.623222
2951.917725	35.617733
2951.285889	43.526077
2950.653809	47.475674
2950.021973	31.645571
2949.389893	55.371212
2948.757568	43.499245
2948.125244	39.538673
2947.492920	31.626060
2946.860352	35.573833
2946.227783	51.376503
2945.595215	63.222870
2944.962402	63.213120
2944.329590	59.253162
2943.696533	71.092827
2943.063477	55.285896
2942.430420	78.967667
2941.797119	71.059937
2941.163574	63.154648
2940.530273	71.038017
2939.896729	142.054123
2939.262939	86.797462
2938.629150	82.839340
2937.995361	130.156021
2937.361328	130.135941
2936.727295	141.944565
2936.093262	126.153481
2935.458984	185.259338
2934.824707	149.761032
2934.190186	141.856964
2933.555664	161.534393
2932.921143	177.266479
2932.286377	192.993713
2931.651367	157.521561
2931.016602	177.184402
2930.381592	192.904343
2929.746338	181.065918
2929.111084	192.844788
2928.475830	169.205002
2927.840332	188.850845
2927.204834	216.358170
2926.569336	188.792526
2925.933594	184.830795
2925.297607	200.530106
2924.661865	196.567764
2924.025879	200.468155
2923.389648	227.948181
2922.753418	176.829025
2922.117188	223.948837
2921.480713	196.416000
2920.844238	200.313370
2920.207764	172.792679
2919.571045	227.736969
2918.934082	204.146423
2918.297363	192.339020
2917.660156	204.083328
2917.023193	207.975861
2916.385986	204.020248
2915.748779	207.911575
2915.111328	180.423676
2914.473877	211.768967
2913.836182	243.104553
2913.198486	246.987411
2912.560791	203.831100
2911.922852	203.799591
2911.284912	199.849472
2910.646729	254.670715
2910.008545	246.796524
2909.370361	231.091171
2908.731934	262.384979
2908.093506	246.682053
2907.455078	238.813934
2906.816406	262.263245
2906.177490	336.584351
2905.538574	297.400635
2904.899658	269.966705
2904.260498	277.748840
2903.621338	293.351288
2902.982178	328.502594
2902.342773	304.990936
2901.703369	273.667450
2901.063721	359.621582
2900.424072	332.207642
2899.784424	324.340790
2899.144531	336.011932
2898.504639	359.399017
2897.864502	367.155182
2897.224365	413.961975
2896.583984	378.755615
2895.943848	382.601074
2895.303223	370.831390
2894.662842	370.773987
2894.021973	343.400604
2893.381348	456.496033
2892.740479	409.612488
2892.099609	351.042053
2891.458496	401.685913
2890.817383	413.321503
2890.176025	389.865540
2889.534668	362.518799
2888.893311	448.206512
2888.251709	440.343384
2887.610107	432.482697
2886.968262	397.354980
2886.326416	432.348724
2885.684570	486.803741
2885.042480	467.259186
2884.400391	517.798706
2883.758057	615.033997
2883.115723	622.722717
2882.473389	684.888794
2881.830811	743.144836
2881.188232	770.261108
2880.545410	875.161072
2879.902588	991.695496
2879.259766	940.992554
2878.616699	979.724670
2877.973633	948.475220
2877.330322	804.524292
2876.687012	726.679810
2876.043457	722.681763
2875.399902	668.182739
2874.756348	543.785339
2874.112549	508.748810
2873.468750	520.318848
2872.824707	512.473389
2872.180664	411.467834
2871.536621	465.740417
2870.892334	450.145905
2870.248047	411.276398
2869.603760	430.609436
2868.958984	418.906342
2868.314453	387.816071
2867.669678	364.490540
2867.024902	422.588348
2866.379883	344.995667
2865.734863	368.196655
2865.089844	375.889832
2864.444580	395.204254
2863.799316	410.638702
2863.153809	402.828278
2862.508301	391.147522
2861.862549	433.680420
2861.216797	398.769196
2860.571045	387.094452
2859.925049	417.997101
2859.279053	445.020386
2858.632813	429.474731
2857.986572	437.145142
2857.340332	464.152832
2856.693848	456.346100
2856.047363	487.209137
2855.400635	595.385376
2854.753906	556.637512
2854.107178	572.010803
2853.460205	533.278564
2852.813232	567.969360
2852.166016	610.375671
2851.518799	598.693237
2850.871338	633.357666
2850.223877	644.843262
2849.576416	725.818542
2848.928711	772.027405
2848.281006	694.716675
2847.633301	837.389404
2846.985352	829.542603
2846.337158	837.129150
2845.688965	813.856201
2845.040771	840.725525
2844.392578	825.171082
2843.743896	871.306885
2843.095459	840.333496
2842.446777	828.640442
2841.798096	820.804504
2841.149170	816.823975
2840.500244	712.683655
2839.851074	647.093201
2839.202148	596.927673
2838.552734	562.179932
2837.903320	535.142822
2837.253906	500.415466
2836.604492	442.606384
2835.954834	438.689392
2835.304932	392.450500
2834.655029	346.225983
2834.005127	346.172119
2833.354980	292.277649
2832.704834	246.090256
2832.054688	272.963898
2831.404297	246.013672
2830.753906	188.324921
2830.103271	203.666672
2829.452637	192.108475
2828.801758	161.346008
2828.150879	157.479919
2827.500000	115.211273
2826.848877	126.712677
2826.197754	142.049667
2825.546387	99.803154
2824.895020	103.625595
2824.243408	130.471176
2823.591797	69.062225
2822.940186	95.904816
2822.288330	76.711906
2821.636475	88.204956
2820.984619	53.681614
2820.332520	80.509880
2819.680176	53.664894
2819.028076	95.815239
2818.375488	68.976227
2817.723145	88.122566
2817.070557	45.969830
2816.417725	68.944000
2815.764893	61.274010
2815.112061	61.264462
2814.458984	53.598053
2813.805908	65.073212
2813.152832	61.235828
2812.499512	68.879570
2811.845947	68.868835
2811.192383	42.079952
2810.538818	49.723103
2809.885010	42.066837
2809.231201	30.589294
2808.577393	26.761461
2807.923340	49.692108
2807.269287	45.862488
2806.614990	57.319172
2805.960693	53.489552
2805.306152	61.121384
2804.651611	22.916946
2803.997070	53.464535
2803.342285	42.001297
2802.687500	30.541636
2802.032471	41.988197
2801.377441	57.247704
2800.722412	38.159184
2800.067139	57.229847
2799.411621	26.703094
2798.756348	49.583725
2798.100586	49.575993
2797.445068	45.755314
2796.789307	49.560524
2796.133301	53.364544
2795.477539	15.244633
2794.821289	22.863380
2794.165283	53.339565
2793.509033	45.712490
2792.852539	49.514137
2792.196045	38.081852
2791.539551	26.653135
2790.882813	45.683956
2790.226074	49.483227
2789.569092	57.087116
2788.912109	30.441710
2788.255127	34.241577
2787.597900	15.216103
2786.940430	38.034317
2786.283203	34.225540
2785.625488	49.429169
2784.968018	53.223099
2784.310303	49.413731
2783.652588	49.406013
2782.994629	41.798557
2782.336426	49.390579
2781.678467	30.389456
2781.020264	30.384706
2780.361816	37.974949
2779.703369	22.781410
2779.044922	37.963085
2778.386230	30.365723
2777.727539	30.360977
2777.068604	30.356234
2776.409668	49.321171
2775.750732	37.933434
2775.091553	30.342003
2774.432373	30.337259
2773.772949	41.707211
2773.113525	53.073608
2772.453857	41.694172
2771.794189	37.897869
2771.134521	34.102749
2770.474609	56.829029
2769.814697	41.668106
2769.154541	30.299337
2768.494385	45.441898
2767.833984	56.793491
2767.173584	45.427689
2766.513184	45.420582
2765.852539	37.844566
2765.191895	45.406376
2764.531006	45.399273
2763.870117	30.261446
2763.209229	49.167156
2762.548096	-3.781497
2761.886719	45.370869
2761.225586	41.583454
2760.563965	30.237780
2759.902588	34.012180
2759.240967	56.678097
2758.579102	41.557430
2757.917236	37.773571
2757.255371	45.321190
2756.593262	30.209398
2755.931152	33.980251
2755.269043	45.299911
2754.606689	45.292820
2753.944092	49.059540
2753.281494	45.278637
2752.618896	49.044178
2751.956055	22.632231
2751.293213	41.485924
2750.630371	37.708572
2749.967285	41.472931
2749.303955	33.927086
2748.640625	45.229027
2747.977295	41.453449
2747.313721	48.982765
2746.650146	52.742405
2745.986572	37.667244
2745.322754	52.725883
2744.658691	52.717621
2743.994873	45.179451
2743.330566	37.643646
2742.666504	48.929070
2742.002197	41.395031
2741.337646	67.726707
2740.673096	48.906071
2740.008545	67.705482
2739.343750	75.216522
2738.678955	56.403549
2738.013916	45.115768
2737.348877	37.590580
2736.683594	45.101624
2736.018311	52.610310
2735.353027	63.873932
2734.687500	45.080410
2734.021973	48.829456
2733.356201	52.577320
2732.690430	52.569077
2732.024658	67.578209
2731.358643	75.075127
2730.692383	82.569687
2730.026367	90.061890
2729.359863	101.303734
2728.693604	90.033638
2728.027100	86.268700
2727.360352	105.006287
2726.693604	97.490540
2726.026855	93.726196
2725.359863	82.466110
2724.692871	93.696785
2724.025635	116.165779
2723.358398	142.374405
2722.691162	134.859848
2722.023682	86.146942
2721.355957	108.603004
2720.688477	93.608582
2720.020508	86.106377
2719.352783	123.524536
2718.684814	127.247726
2718.016602	123.485756
2717.348389	119.724960
2716.680176	127.187798
2716.011719	82.285065
2715.343262	93.491066
2714.674561	104.693550
2714.005859	93.461708
2713.337158	97.184906
2712.668213	74.745880
2711.999023	82.207550
2711.329834	93.402992
2710.660645	100.859390
2709.991455	97.108597
2709.321777	85.890259
2708.652344	108.279404
2707.982666	89.596458
2707.312988	89.582382
2706.643066	100.764343
2705.972900	100.748505
2705.302979	85.809311
2704.632813	59.684052
2703.962402	63.404339
2703.291992	67.123451
2702.621582	74.569893
2701.950928	63.374443
2701.280273	82.001091
2700.609375	55.901043
2699.938477	55.892254
2699.267334	70.785721
2698.596191	67.049614
2697.925049	70.763466
2697.253662	78.199951
2696.582031	70.741203
2695.910645	44.671631
2695.239014	33.498451
2694.567139	59.543438
2693.895264	40.929672
2693.223145	52.084118
2692.551270	55.795631
2691.878906	70.663345
2691.206543	59.496613
2690.534180	78.077019
2689.861816	52.043156
2689.189209	74.335663
2688.516357	52.026775
2687.843506	40.871746
2687.170654	66.870514
2686.497559	66.859993
2685.824463	40.852451
2685.151123	77.978767
2684.477783	33.414211
2683.804199	37.121056
2683.130615	29.692169
2682.457031	55.664051
2681.783203	37.103523
2681.109375	48.226986
2680.435303	51.928574
2679.761230	63.046196
2679.086914	48.204205
2678.412598	29.659454
2677.738281	29.654781
2677.063721	40.768902
2676.389160	66.702240
2675.714355	51.871349
2675.039551	40.749638
2674.364502	37.039288
2673.689453	62.956871
2673.014404	55.541428
2672.339111	33.319603
2671.663574	14.806379
2670.988037	44.412140
2670.312500	25.902998
2669.636719	48.097984
2668.960938	33.293358
2668.285156	40.685467
2667.609131	44.377148
2666.932861	40.672642
2666.256592	33.272369
2665.580322	18.481735
2664.903809	55.436462
2664.227295	59.122902
2663.550781	22.167593
2662.874023	29.552130
2662.197021	33.240902
2661.520020	66.471321
2660.843018	36.922688
2660.165771	44.300236
2659.488525	40.602142
2658.811035	29.524174
2658.133545	44.279274
2657.455811	55.340359
2656.778076	59.020405
2656.100342	44.258320
2655.422363	59.001781
2654.744385	44.244354
2654.066162	36.864475
2653.387939	51.602123
2652.709473	62.649830
2652.031006	44.216431
2651.352539	25.788845
2650.673828	29.468315
2649.994873	44.195496
2649.316162	81.012283
2648.636963	29.454361
2647.958008	36.812138
2647.278809	55.209488
2646.599365	58.880821
2645.919922	77.268875
2645.240479	25.752224
2644.560791	66.209549
2643.880859	44.132729
2643.201172	55.157196
2642.520996	55.148483
2641.841064	47.787804
2641.160889	55.131065
2640.480469	51.447529
2639.800049	40.416672
2639.119629	44.083950
2638.438965	47.750069
2637.758301	51.415024
2637.077393	47.734978
2636.396484	33.042068
2635.715332	44.049129
2635.034180	18.350904
2634.353027	14.678403
2633.671631	33.021187
2632.989990	40.352848
2632.308350	29.342886
2631.626709	44.007370
2630.944824	33.000309
2630.262939	18.330606
2629.581055	21.993252
2628.898926	43.979546
2628.216553	29.315062
2627.534180	40.301834
2626.851807	29.305790
2626.169189	36.626446
2625.486572	62.255108
