#Wave		#Intensity
3200.600830	29.468966
3200.007080	12.629557
3199.413086	-12.627648
3198.819092	25.251478
3198.224854	0.000000
3197.630615	0.000000
3197.036377	16.826687
3196.442139	0.000000
3195.847656	33.643200
3195.252930	4.204764
3194.658447	16.816513
3194.063721	33.627941
3193.468750	0.000000
3192.873779	-4.202222
3192.278809	-4.201586
3191.683838	-8.401901
3191.088623	12.600946
3190.493164	12.599041
3189.897949	-4.199045
3189.302490	4.198410
3188.706787	8.395550
3188.111328	-8.394279
3187.515381	20.982525
3186.919678	16.783482
3186.323730	20.976177
3185.727783	29.362206
3185.131592	8.387932
3184.535400	12.579994
3183.939209	12.578091
3183.342773	8.384125
3182.746338	12.574285
3182.149902	4.190794
3181.553223	0.000000
3180.956543	16.758101
3180.359619	-16.755566
3179.762695	8.376514
3179.165771	-4.187623
3178.568604	4.186989
3177.971436	29.304487
3177.374268	4.185721
3176.776855	8.370175
3176.179443	12.553363
3175.581787	12.551461
3174.984131	8.366374
3174.386475	4.182554
3173.788574	-4.181920
3173.190674	-16.725147
3172.592773	0.000000
3171.994629	16.720081
3171.396484	12.538162
3170.798340	16.715017
3170.199951	12.534364
3169.601563	20.887442
3169.002930	8.353711
3168.404297	20.881113
3167.805664	20.877949
3167.206787	-4.174957
3166.607910	12.522974
3166.008789	20.868460
3165.409912	16.692238
3164.810547	20.862135
3164.211426	4.171795
3163.612061	12.513488
3163.012695	20.852652
3162.413086	0.000000
3161.813477	16.677065
3161.213623	4.168634
3160.614014	25.008013
3160.013916	20.836851
3159.414063	8.333477
3158.813965	8.332213
3158.213867	4.165475
3157.613525	20.824217
3157.013184	16.656847
3156.412598	37.472225
3155.812256	-16.651796
3155.211426	4.162318
3154.610840	4.161686
3154.010010	16.644220
3153.409180	12.481272
3152.808105	8.319586
3152.207031	-4.159162
3151.605957	16.634125
3151.004639	20.789501
3150.403320	16.629078
3149.801758	8.313277
3149.200195	16.624031
3148.598633	16.621510
3147.996826	-12.464240
3147.395020	8.308232
3146.793213	20.767429
3146.191162	12.458566
3145.589111	20.761126
3144.986816	0.000000
3144.384766	20.754824
3143.782227	-8.300669
3143.179932	12.449114
3142.577393	24.894447
3141.974609	4.148445
3141.371826	-8.295630
3140.769043	0.000000
3140.166260	20.732777
3139.563232	-8.291851
3138.960205	16.581184
3138.356934	20.723333
3137.753662	8.288074
3137.150391	20.717039
3136.546875	16.571114
3135.943359	8.284299
3135.339600	20.707600
3134.735840	8.281782
3134.132080	24.841572
3133.528076	28.977430
3132.924072	12.417012
3132.320068	12.415126
3131.715820	20.688732
3131.111572	8.274236
3130.507080	20.682446
3129.902588	0.000000
3129.298096	12.405696
3128.693604	33.076828
3128.088867	16.535900
3127.483887	0.000000
3126.878906	-4.132719
3126.273926	24.792542
3125.668945	16.525848
3125.063721	8.261668
3124.458252	16.520824
3123.853027	4.129578
3123.247559	-8.257900
3122.641846	4.128323
3122.036133	0.000000
3121.430420	49.524803
3120.824707	16.505758
3120.218750	4.125812
3119.612549	16.500738
3119.006592	28.871899
3118.400391	12.371789
3117.793945	16.493210
3117.187500	-4.122675
3116.581055	-4.122048
3115.974609	8.242842
3115.367920	8.241588
3114.760986	20.600836
3114.154297	24.717241
3113.547363	20.594566
3112.940186	4.118287
3112.333008	8.235320
3111.725830	4.117033
3111.118408	28.814846
3110.510986	-8.231561
3109.903564	-8.230308
3109.295898	20.572638
3108.688232	0.000000
3108.080566	41.132748
3107.472656	8.225297
3106.864746	20.560112
3106.256592	8.222793
3105.648438	20.553852
3105.040039	41.101448
3104.431885	12.328556
3103.823486	16.435572
3103.214844	4.108267
3102.606201	12.322925
3101.997559	16.428064
3101.388672	4.106390
3100.779785	20.528826
3100.170898	16.420559
3099.561768	12.313543
3098.952637	16.415556
3098.343262	8.206528
3097.733887	-8.205277
3097.124512	24.612083
3096.514893	12.304167
3095.905273	0.000000
3095.295410	28.700974
3094.685791	24.597086
3094.075684	-4.098889
3093.465820	4.098265
3092.855713	-4.097640
3092.245361	-4.097016
3091.635254	24.578346
3091.024658	12.287300
3090.414307	20.475712
3089.803711	20.472591
3089.193115	28.657257
3088.582275	0.000000
3087.971436	28.648520
3087.360596	28.644152
3086.749512	12.274193
3086.138428	12.272322
3085.527100	8.180300
3084.915771	49.074314
3084.304443	16.355610
3083.692871	20.441395
3083.081299	16.350622
3082.469482	24.522192
3081.857910	28.604860
3081.245850	4.085785
3080.634033	16.340647
3080.021973	12.253615
3079.409668	20.419577
3078.797607	32.666340
3078.185059	4.082669
3077.572754	12.246139
3076.960205	8.162847
3076.347656	24.484802
3075.734863	0.000000
3075.122070	28.556885
3074.509033	16.315729
3073.895996	20.391548
3073.282959	16.310749
3072.669922	12.231194
3072.056641	16.305769
3071.443115	4.075820
3070.829834	20.375990
3070.216064	0.000000
3069.602539	4.073954
3068.988770	12.219995
3068.375000	20.363546
3067.760986	24.432526
3067.146973	12.214396
3066.532715	16.283375
3065.918701	20.351110
3065.304199	20.348001
3064.689941	24.413872
3064.075439	20.341785
3063.460693	16.270943
3062.846191	4.067114
3062.231445	24.398958
3061.616455	24.395229
3061.001465	16.261002
3060.386475	-4.064629
3059.771240	28.448057
3059.156006	8.126774
3058.540771	20.313831
3057.925293	32.497162
3057.309814	12.184573
3056.694092	40.609035
3056.078369	16.241131
3055.462646	8.119325
3054.846680	4.059042
3054.230713	8.116842
3053.614502	4.057801
3052.998291	8.114361
3052.382080	16.226240
3051.765625	16.223759
3051.149170	16.221279
3050.532715	16.218798
3049.916016	28.378555
3049.299316	0.000000
3048.682373	8.105679
3048.065430	8.104439
3047.448486	28.361198
3046.831299	32.407841
3046.214111	20.251802
3045.596680	8.099482
3044.979248	12.147364
3044.361816	4.048502
3043.744141	20.239412
3043.126465	12.141788
3042.508545	-8.093287
3041.890869	8.092049
3041.272705	24.272432
3040.654785	32.358288
3040.036621	0.000000
3039.418213	8.087096
3038.799805	24.257576
3038.181396	20.211552
3037.562988	28.291842
3036.944336	12.123219
3036.325439	4.040454
3035.706543	12.119507
3035.087646	32.313740
3034.468750	32.308792
3033.849609	32.303844
3033.230469	4.037362
3032.611084	32.293949
3031.991699	12.108377
3031.372070	24.213045
3030.752441	8.069778
3030.132813	16.137085
3029.513184	40.336536
3028.893066	16.132143
3028.273193	16.129671
3027.653076	24.190800
3027.032959	24.187094
3026.412598	20.152824
3025.792480	12.089842
3025.171875	20.146648
3024.551270	36.258411
3023.930664	24.168570
3023.310059	28.192345
3022.689209	28.188023
3022.068115	24.157459
3021.447266	12.076879
3020.826172	36.225082
3020.204834	20.121962
3019.583496	4.023775
3018.962158	24.138950
3018.340576	36.202873
3017.718994	16.087700
3017.097412	40.213081
3016.475586	32.165535
3015.853760	40.200752
3015.231689	28.136211
3014.609619	28.131897
3013.987549	24.109356
3013.365234	0.000000
3012.742920	40.169937
3012.120361	16.065510
3011.497803	8.031523
3010.875244	24.090872
3010.252441	12.043589
3009.629639	24.083481
3009.006836	24.079786
3008.383789	32.101456
3007.760498	32.096531
3007.137451	0.000000
3006.514160	24.065010
3005.890625	36.091976
3005.267090	12.028812
3004.643555	56.125843
3004.019775	44.092110
3003.395996	48.093098
3002.772217	24.042858
3002.148193	24.039167
3001.524170	32.047302
3000.899902	28.037085
3000.275635	24.028097
2999.651367	24.024408
2999.026855	32.027626
2998.402344	32.022709
2997.777588	48.026688
2997.152832	24.009657
2996.528076	24.005970
2995.903076	12.001142
2995.278076	43.997425
2994.653076	19.995758
2994.027832	35.986835
2993.402344	15.991693
2992.777100	39.973091
2992.151367	11.990085
2991.525879	39.960808
2990.900146	35.959202
2990.274414	43.943382
2989.648438	15.976956
2989.022461	47.923504
2988.396240	23.958071
2987.770264	19.961990
2987.143799	39.917847
2986.517578	35.920540
2985.891113	19.952787
2985.264404	35.909496
2984.637695	47.871971
2984.010986	23.932306
2983.384033	31.904835
2982.757080	55.824879
2982.130127	23.921268
2981.502930	11.958796
2980.875732	35.870869
2980.248291	23.910236
2979.620850	27.890985
2978.993408	35.854324
2978.365723	35.848808
2977.738037	23.895531
2977.110107	27.873831
2976.482178	39.813633
2975.854248	35.826759
2975.226074	31.841110
2974.597900	27.856684
2973.969482	35.810226
2973.341309	35.804718
2972.712646	31.821518
2972.083984	23.862467
2971.455322	19.882330
2970.826660	31.806831
2970.197754	51.678146
2969.568604	67.568718
2968.939697	35.766167
2968.310547	31.787254
2967.681152	43.700748
2967.051758	59.582756
2966.422363	27.801006
2965.792725	31.767687
2965.163086	43.673843
2964.533203	47.636860
2963.903564	27.783890
2963.273438	51.590706
2962.643311	47.614857
2962.013184	59.509407
2961.383057	55.533558
2960.752686	35.694649
2960.122314	35.689148
2959.491699	27.753952
2958.861084	27.749678
2958.230225	19.818144
2957.599609	51.519238
2956.968506	43.586487
2956.337646	63.388760
2955.706299	19.805935
2955.075195	59.408649
2954.443848	63.359463
2953.812500	43.552917
2953.180908	51.463699
2952.549316	51.455769
2951.917725	71.235466
2951.285889	27.698412
2950.653809	63.300900
2950.021973	79.113930
2949.389893	55.371212
2948.757568	71.180580
2948.125244	86.985077
2947.492920	79.065155
2946.860352	51.384426
2946.227783	39.520386
2945.595215	94.834305
2944.962402	75.065582
2944.329590	86.904640
2943.696533	102.689644
2943.063477	98.724808
2942.430420	114.503120
2941.797119	118.433235
2941.163574	90.784805
2940.530273	90.770805
2939.896729	157.837906
2939.262939	126.250847
2938.629150	173.568130
2937.995361	165.653107
2937.361328	134.079453
2936.727295	153.773285
2936.093262	220.768585
2935.458984	169.492584
2934.824707	181.289658
2934.190186	189.142624
2933.555664	212.752609
2932.921143	212.719772
2932.286377	196.932358
2931.651367	185.087830
2931.016602	212.621277
2930.381592	220.462112
2929.746338	216.491852
2929.111084	212.522827
2928.475830	283.320007
2927.840332	263.604309
2927.204834	259.629822
2926.569336	235.990646
2925.933594	294.942749
2925.297607	271.305420
2924.661865	247.675400
2924.025879	294.806122
2923.389648	255.459167
2922.753418	275.067383
2922.117188	282.882751
2921.480713	322.122223
2920.844238	235.662781
2920.207764	267.043213
2919.571045	263.075470
2918.934082	263.034821
2918.297363	302.247009
2917.660156	262.953522
2917.023193	286.457336
2916.385986	290.336517
2915.748779	258.908752
2915.111328	247.101990
2914.473877	286.280273
2913.836182	305.841217
2913.198486	297.953064
2912.560791	262.628540
2911.922852	317.457062
2911.284912	278.221802
2910.646729	317.358887
2910.008545	313.392426
2909.370361	313.343964
2908.731934	360.289825
2908.093506	383.727631
2907.455078	297.538666
2906.816406	305.321411
2906.177490	399.204681
2905.538574	367.837616
2904.899658	352.130463
2904.260498	379.459686
2903.621338	398.957733
2902.982178	441.914215
2902.342773	398.834290
2901.703369	422.229797
2901.063721	445.618042
2900.424072	429.915771
2899.784424	453.295563
2899.144531	480.575226
2898.504639	507.846405
2897.864502	437.461517
2897.224365	472.541504
2896.583984	519.324707
2895.943848	456.778839
2895.303223	507.453491
2894.662842	562.015320
2894.021973	530.710022
2893.381348	479.906097
2892.740479	464.227509
2892.099609	499.259827
2891.458496	503.082367
2890.817383	506.903717
2890.176025	530.217163
2889.534668	491.154510
2888.893311	533.950378
2888.251709	549.455017
2887.610107	545.473694
2886.968262	576.554260
2886.326416	564.779846
2885.684570	623.108826
2885.042480	638.587585
2884.400391	646.275085
2883.758057	712.349487
2883.115723	673.318909
2882.473389	712.128723
2881.830811	813.179443
2881.188232	941.430237
2880.545410	1092.978882
2879.902588	1197.812622
2879.259766	1314.278809
2878.616699	1189.665649
2877.973633	1212.804443
2877.330322	1239.822510
2876.687012	1084.190796
2876.043457	920.836426
2875.399902	924.578430
2874.756348	846.751465
2874.112549	780.599304
2873.468750	683.403870
2872.824707	663.885986
2872.180664	659.901245
2871.536621	609.343689
2870.892334	585.965759
2870.248047	620.794556
2869.603760	570.266541
2868.958984	585.693115
2868.314453	558.455139
2867.669678	558.368469
2867.024902	581.543579
2866.379883	573.700623
2865.734863	538.729858
2865.089844	503.769867
2864.444580	588.931824
2863.799316	584.966492
2863.153809	565.508911
2862.508301	557.675659
2861.862549	565.333374
2861.216797	611.704163
2860.571045	541.932251
2859.925049	580.551514
2859.279053	607.549561
2858.632813	599.716980
2857.986572	622.835083
2857.340332	673.021606
2856.693848	676.784424
2856.047363	788.814758
2855.400635	730.700195
2854.753906	707.393494
2854.107178	772.987549
2853.460205	792.189209
2852.813232	784.338684
2852.166016	849.890137
2851.518799	896.108582
2850.871338	923.002930
2850.223877	984.640869
2849.576416	1034.677490
2848.928711	999.775513
2848.281006	1018.917847
2847.633301	1157.681274
2846.985352	1080.334595
2846.337158	1199.756592
2845.688965	1141.713013
2845.040771	1222.522827
2844.392578	1318.731323
2843.743896	1237.564209
2843.095459	1125.584351
2842.446777	1241.033569
2841.798096	1140.648560
2841.149170	1017.177002
2840.500244	1028.575928
2839.851074	993.750244
2839.202148	912.721680
2838.552734	843.269897
2837.903320	750.739990
2837.253906	731.376465
2836.604492	681.228943
2835.954834	615.704407
2835.304932	542.505066
2834.655029	453.940735
2834.005127	430.791962
2833.354980	423.033447
2832.704834	372.980530
2832.054688	342.166016
2831.404297	326.736908
2830.753906	253.662125
2830.103271	292.050323
2829.452637	265.109680
2828.801758	234.335861
2828.150879	222.776474
2827.500000	195.859161
2826.848877	191.988907
2826.197754	172.763123
2825.546387	126.673233
2824.895020	161.195374
2824.243408	149.658112
2823.591797	138.124451
2822.940186	138.102936
2822.288330	122.739052
2821.636475	122.719940
2820.984619	103.528824
2820.332520	126.515526
2819.680176	88.163757
2819.028076	76.652191
2818.375488	114.960381
2817.723145	99.616814
2817.070557	84.278015
2816.417725	91.925331
2815.764893	95.740639
2815.112061	114.870865
2814.458984	91.882378
2813.805908	95.695892
2813.152832	110.989937
2812.499512	107.146004
2811.845947	91.825119
2811.192383	68.858109
2810.538818	61.197666
2809.885010	103.254967
2809.231201	80.296898
2808.577393	84.107445
2807.923340	72.626930
2807.269287	57.328110
2806.614990	91.710670
2805.960693	45.848186
2805.306152	61.121384
2804.651611	84.028801
2803.997070	68.740112
2803.342285	68.729393
2802.687500	91.624901
2802.032471	64.890854
2801.377441	57.247704
2800.722412	61.054691
2800.067139	83.937111
2799.411621	83.924011
2798.756348	76.282654
2798.100586	72.457214
2797.445068	45.755314
2796.789307	49.560524
2796.133301	83.858566
2795.477539	53.356216
2794.821289	38.105637
2794.165283	57.149532
2793.509033	68.568733
2792.852539	64.749252
2792.196045	60.930962
2791.539551	64.729042
2790.882813	68.525932
2790.226074	79.934441
2789.569092	41.863888
2788.912109	45.662563
2788.255127	57.069294
2787.597900	45.648308
2786.940430	53.248043
2786.283203	60.845402
2785.625488	49.429169
2784.968018	76.032997
2784.310303	64.617958
2783.652588	41.805088
2782.994629	64.597771
2782.336426	37.992752
2781.678467	49.382866
2781.020264	64.567505
2780.361816	56.962425
2779.703369	56.953526
2779.044922	56.944626
2778.386230	49.344299
2777.727539	56.926834
2777.068604	53.123409
2776.409668	83.466599
2775.750732	34.140087
2775.091553	53.098503
2774.432373	45.505890
2773.772949	49.290340
2773.113525	26.536804
2772.453857	49.274933
2771.794189	64.426376
2771.134521	34.102749
2770.474609	37.886021
2769.814697	45.456116
2769.154541	60.598675
2768.494385	53.015549
2767.833984	34.076096
2767.173584	71.927170
2766.513184	49.205631
2765.852539	52.982391
2765.191895	52.974102
2764.531006	37.832726
2763.870117	34.044128
2763.209229	56.731335
2762.548096	68.066948
2761.886719	56.713585
2761.225586	60.485023
2760.563965	56.695839
2759.902588	56.686966
2759.240967	56.678097
2758.579102	56.669224
2757.917236	64.215073
2757.255371	67.981789
2756.593262	67.971146
2755.931152	71.736092
2755.269043	45.299911
2754.606689	60.390427
2753.944092	52.833351
2753.281494	75.464394
2752.618896	49.044178
2751.956055	49.036499
2751.293213	45.257370
2750.630371	56.562855
2749.967285	41.472931
2749.303955	79.163193
2748.640625	60.305370
2747.977295	71.601410
2747.313721	33.911144
2746.650146	56.509720
2745.986572	48.967419
2745.322754	75.322685
2744.658691	67.779800
2743.994873	67.769180
2743.330566	52.701103
2742.666504	56.456619
2742.002197	56.447773
2741.337646	75.251900
2740.673096	67.716095
2740.008545	90.273979
2739.343750	52.651566
2738.678955	60.163788
2738.013916	82.712242
2737.348877	48.867752
2736.683594	86.444778
2736.018311	52.610310
2735.353027	75.145805
2734.687500	101.430923
2734.021973	56.341679
2733.356201	82.621506
2732.690430	75.098679
2732.024658	90.104279
2731.358643	82.582634
2730.692383	82.569687
2730.026367	116.329941
2729.359863	97.551743
2728.693604	112.542046
2728.027100	146.281708
2727.360352	135.008087
2726.693604	157.484711
2726.026855	142.463821
2725.359863	116.202248
2724.692871	149.914856
2724.025635	157.385895
2723.358398	131.134323
2722.691162	161.082596
2722.023682	146.075241
2721.355957	131.072586
2720.688477	138.540695
2720.020508	164.725250
2719.352783	149.726715
2718.684814	175.901260
2718.016602	153.421692
2717.348389	153.397598
2716.680176	175.818420
2716.011719	142.128738
2715.343262	186.982132
2714.674561	138.345047
2714.005859	149.538727
2713.337158	138.301590
2712.668213	156.966339
2711.999023	164.415100
2711.329834	141.972549
2710.660645	127.008118
2709.991455	145.662888
2709.321777	104.562057
2708.652344	126.948265
2707.982666	149.327438
2707.312988	141.838760
2706.643066	104.496353
2705.972900	100.748505
2705.302979	123.117706
2704.632813	152.940384
2703.962402	111.890007
2703.291992	96.956100
2702.621582	111.854836
2701.950928	104.381432
2701.280273	115.546989
2700.609375	85.714935
2699.938477	89.427605
2699.267334	85.687981
2698.596191	89.399483
2697.925049	85.661034
2697.253662	93.095177
2696.582031	89.357315
2695.910645	111.679077
2695.239014	111.661507
2694.567139	74.429298
2693.895264	78.138466
2693.223145	89.287056
2692.551270	89.273010
2691.878906	92.978088
2691.206543	78.089302
2690.534180	81.794968
2689.861816	81.782097
2689.189209	96.636360
2688.516357	70.607765
2687.843506	66.881042
2687.170654	66.870514
2686.497559	104.004425
2685.824463	51.994030
2685.151123	96.545135
2684.477783	77.966492
2683.804199	89.090530
2683.130615	115.057152
2682.457031	66.796860
2681.783203	59.365639
2681.109375	59.356289
2680.435303	51.928574
2679.761230	70.463394
2679.086914	77.868332
2678.412598	66.733772
2677.738281	74.136955
2677.063721	77.831543
2676.389160	70.407921
2675.714355	66.691734
2675.039551	92.612816
2674.364502	59.262863
2673.689453	62.956871
2673.014404	48.135902
2672.339111	77.745743
2671.663574	62.927113
2670.988037	85.123268
2670.312500	59.206852
2669.636719	55.497677
2668.960938	62.887451
2668.285156	81.370934
2667.609131	77.660011
2666.932861	73.950256
2666.256592	44.363159
2665.580322	51.748859
2664.903809	73.915283
2664.227295	51.732540
2663.550781	88.670372
2662.874023	73.880325
2662.197021	84.948975
2661.520020	51.699917
2660.843018	73.845375
2660.165771	81.217094
2659.488525	70.130974
2658.811035	73.810432
2658.133545	47.969212
2657.455811	70.097786
2656.778076	92.219383
2656.100342	70.075668
2655.422363	70.064613
2654.744385	81.114647
2654.066162	70.042503
2653.387939	55.287987
2652.709473	73.705681
2652.031006	70.009346
2651.352539	66.314178
2650.673828	92.088486
2649.994873	51.561409
2649.316162	66.282776
2648.636963	73.635902
2647.958008	73.624275
2647.278809	58.890121
2646.599365	66.240929
2645.919922	62.550995
2645.240479	66.220009
2644.560791	62.531242
2643.880859	73.554550
2643.201172	66.188637
2642.520996	77.207878
2641.841064	51.463787
2641.160889	58.806469
2640.480469	62.472000
2639.800049	58.787888
2639.119629	80.820580
2638.438965	69.788559
2637.758301	77.122536
2637.077393	62.422665
2636.396484	58.741459
2635.715332	69.744461
2635.034180	80.743980
2634.353027	73.392014
2633.671631	69.711395
2632.989990	62.363491
2632.308350	62.353634
2631.626709	69.678337
2630.944824	47.667114
2630.262939	73.322426
2629.581055	76.976379
2628.898926	65.969322
2628.216553	73.287651
