#Wave		#Intensity
3200.600830	4.209852
3200.007080	12.629557
3199.413086	12.627648
3198.819092	12.625739
3198.224854	16.831776
3197.630615	16.829231
3197.036377	4.206672
3196.442139	4.206036
3195.847656	-4.205400
3195.252930	21.023821
3194.658447	4.204128
3194.063721	16.813971
3193.468750	0.000000
3192.873779	8.404444
3192.278809	4.201586
3191.683838	-4.200951
3191.088623	-4.200315
3190.493164	29.397762
3189.897949	16.796181
3189.302490	8.396820
3188.706787	20.988874
3188.111328	20.985701
3187.515381	0.000000
3186.919678	4.195870
3186.323730	20.976177
3185.727783	16.778402
3185.131592	4.193966
3184.535400	-4.193331
3183.939209	12.578091
3183.342773	-4.192062
3182.746338	0.000000
3182.149902	8.381587
3181.553223	8.380319
3180.956543	12.568576
3180.359619	-12.566673
3179.762695	20.941286
3179.165771	0.000000
3178.568604	-4.186989
3177.971436	12.559066
3177.374268	4.185721
3176.776855	12.555264
3176.179443	-29.291180
3175.581787	8.367641
3174.984131	20.915936
3174.386475	0.000000
3173.788574	-4.181920
3173.190674	4.181287
3172.592773	25.083921
3171.994629	8.360041
3171.396484	-4.179387
3170.798340	12.536263
3170.199951	16.712484
3169.601563	12.532465
3169.002930	-4.176856
3168.404297	0.000000
3167.805664	16.702360
3167.206787	16.699829
3166.607910	8.348649
3166.008789	20.868460
3165.409912	16.692238
3164.810547	29.206989
3164.211426	20.858974
3163.612061	4.171163
3163.012695	12.511591
3162.413086	8.339796
3161.813477	-8.338532
3161.213623	8.337268
3160.614014	8.336004
3160.013916	20.836851
3159.414063	25.000431
3158.813965	16.664427
3158.213867	0.000000
3157.613525	4.164844
3157.013184	24.985271
3156.412598	12.490742
3155.812256	20.814745
3155.211426	29.136223
3154.610840	33.293491
3154.010010	-8.322110
3153.409180	4.160424
3152.808105	16.639172
3152.207031	20.795809
3151.605957	0.000000
3151.004639	-4.157900
3150.403320	16.629078
3149.801758	20.783192
3149.200195	8.312016
3148.598633	-12.466131
3147.996826	4.154747
3147.395020	24.924696
3146.793213	20.767429
3146.191162	16.611422
3145.589111	8.304450
3144.986816	12.454784
3144.384766	4.150965
3143.782227	12.451004
3143.179932	4.149704
3142.577393	24.894447
3141.974609	8.296889
3141.371826	20.739075
3140.769043	29.030294
3140.166260	0.000000
3139.563232	-8.291851
3138.960205	24.871777
3138.356934	24.868000
3137.753662	8.288074
3137.150391	12.430223
3136.546875	4.142778
3135.943359	12.426448
3135.339600	-4.141520
3134.735840	4.140891
3134.132080	24.841572
3133.528076	4.139633
3132.924072	12.417012
3132.320068	12.415126
3131.715820	8.275493
3131.111572	8.274236
3130.507080	16.545956
3129.902588	24.815163
3129.298096	20.676159
3128.693604	0.000000
3128.088867	8.267950
3127.483887	4.133347
3126.878906	4.132719
3126.273926	20.660452
3125.668945	12.394386
3125.063721	8.261668
3124.458252	-12.390618
3123.853027	8.259156
3123.247559	24.773701
3122.641846	12.384968
3122.036133	16.510778
3121.430420	41.270672
3120.824707	12.379318
3120.218750	-4.125812
3119.612549	20.625921
3119.006592	-8.249114
3118.400391	4.123930
3117.793945	4.123302
3117.187500	16.490700
3116.581055	-4.122048
3115.974609	-4.121421
3115.367920	8.241588
3114.760986	4.120167
3114.154297	24.717241
3113.547363	-4.118913
3112.940186	-8.236573
3112.333008	20.588299
3111.725830	24.702200
3111.118408	0.000000
3110.510986	20.578901
3109.903564	4.115154
3109.295898	4.114527
3108.688232	12.341703
3108.080566	20.566374
3107.472656	12.337946
3106.864746	4.112022
3106.256592	20.556982
3105.648438	4.110771
3105.040039	8.220289
3104.431885	16.438076
3103.823486	4.108893
3103.214844	-4.108267
3102.606201	8.215283
3101.997559	8.214032
3101.388672	12.319172
3100.779785	12.317295
3100.170898	24.630838
3099.561768	32.836117
3098.952637	4.103889
3098.343262	8.206528
3097.733887	4.102639
3097.124512	-8.204027
3096.514893	20.506945
3095.905273	16.403055
3095.295410	12.300417
3094.685791	20.497572
3094.075684	16.395557
3093.465820	8.196529
3092.855713	8.195280
3092.245361	4.097016
3091.635254	20.481956
3091.024658	12.287300
3090.414307	4.095142
3089.803711	32.756145
3089.193115	12.281682
3088.582275	28.652889
3087.971436	24.555874
3087.360596	16.368088
3086.749512	8.182796
3086.138428	24.544643
3085.527100	12.270451
3084.915771	8.179052
3084.304443	24.533415
3083.692871	4.088279
3083.081299	24.525932
3082.469482	8.174064
3081.857910	0.000000
3081.245850	0.000000
3080.634033	0.000000
3080.021973	12.253615
3079.409668	-4.083915
3078.797607	12.249877
3078.185059	0.000000
3077.572754	8.164093
3076.960205	20.407116
3076.347656	28.565603
3075.734863	28.561245
3075.122070	-12.238665
3074.509033	16.315729
3073.895996	-4.078310
3073.282959	24.466124
3072.669922	4.077065
3072.056641	12.229327
3071.443115	4.075820
3070.829834	4.075198
3070.216064	28.522030
3069.602539	8.147907
3068.988770	20.366657
3068.375000	4.072710
3067.760986	4.072087
3067.146973	16.285862
3066.532715	24.425062
3065.918701	16.280888
3065.304199	8.139201
3064.689941	32.551830
3064.075439	8.136714
3063.460693	16.270943
3062.846191	12.201343
3062.231445	12.199479
3061.616455	4.065872
3061.001465	16.261002
3060.386475	-12.193888
3059.771240	24.384048
3059.156006	12.190162
3058.540771	12.188298
3057.925293	20.310726
3057.309814	-12.184573
3056.694092	12.182711
3056.078369	4.060283
3055.462646	20.298311
3054.846680	32.472332
3054.230713	-8.116842
3053.614502	0.000000
3052.998291	28.400263
3052.382080	4.056560
3051.765625	24.335638
3051.149170	8.110640
3050.532715	32.437595
3049.916016	0.000000
3049.299316	8.106918
3048.682373	-8.105679
3048.065430	32.417755
3047.448486	4.051600
3046.831299	12.152940
3046.214111	-12.151081
3045.596680	-8.099482
3044.979248	8.098243
3044.361816	28.339512
3043.744141	28.335176
3043.126465	-8.094526
3042.508545	16.186575
3041.890869	8.092049
3041.272705	16.181622
3040.654785	4.044786
3040.036621	12.132502
3039.418213	20.217741
3038.799805	20.214647
3038.181396	8.084620
3037.562988	0.000000
3036.944336	4.041073
3036.325439	40.404545
3035.706543	4.039836
3035.087646	12.117652
3034.468750	24.231592
3033.849609	20.189901
3033.230469	4.037362
3032.611084	24.220463
3031.991699	0.000000
3031.372070	32.284061
3030.752441	32.279114
3030.132813	20.171358
3029.513184	8.067307
3028.893066	-12.099107
3028.273193	24.194508
3027.653076	-4.031800
3027.032959	4.031182
3026.412598	20.152824
3025.792480	12.089842
3025.171875	4.029330
3024.551270	8.057425
3023.930664	24.168570
3023.310059	24.164865
3022.689209	12.080582
3022.068115	12.078730
3021.447266	0.000000
3020.826172	20.125046
3020.204834	8.048784
3019.583496	16.095100
3018.962158	20.115791
3018.340576	28.157791
3017.718994	24.131550
3017.097412	-4.021308
3016.475586	16.082767
3015.853760	16.080301
3015.231689	28.136211
3014.609619	28.131897
3013.987549	20.091129
3013.365234	8.035219
3012.742920	20.084969
3012.120361	8.032755
3011.497803	20.078806
3010.875244	24.090872
3010.252441	28.101706
3009.629639	20.069567
3009.006836	36.119678
3008.383789	16.050728
3007.760498	28.084463
3007.137451	24.068705
3006.514160	20.054176
3005.890625	32.081757
3005.267090	32.076832
3004.643555	28.062922
3004.019775	-8.016747
3003.395996	8.015516
3002.772217	20.035715
3002.148193	28.045696
3001.524170	28.041389
3000.899902	12.015894
3000.275635	28.032782
2999.651367	28.028477
2999.026855	4.003453
2998.402344	16.011354
2997.777588	4.002224
2997.152832	32.012875
2996.528076	24.005970
2995.903076	24.002283
2995.278076	11.999298
2994.653076	19.995758
2994.027832	0.000000
2993.402344	19.989616
2992.777100	27.981163
2992.151367	31.973558
2991.525879	19.980404
2990.900146	11.986401
2990.274414	31.958824
2989.648438	19.971195
2989.022461	19.968126
2988.396240	11.979035
2987.770264	19.961990
2987.143799	19.958923
2986.517578	35.920540
2985.891113	23.943346
2985.264404	0.000000
2984.637695	19.946653
2984.010986	27.921022
2983.384033	23.928627
2982.757080	7.974982
2982.130127	23.921268
2981.502930	7.972530
2980.875732	43.842175
2980.248291	19.925198
2979.620850	47.813118
2978.993408	15.935255
2978.365723	19.916006
2977.738037	39.825886
2977.110107	39.819759
2976.482178	31.850908
2975.854248	19.903755
2975.226074	3.980139
2974.597900	7.959053
2973.969482	19.894571
2973.341309	31.826416
2972.712646	27.843828
2972.083984	11.931233
2971.455322	47.717590
2970.826660	15.903416
2970.197754	47.702904
2969.568604	31.797043
2968.939697	15.896074
2968.310547	35.760662
2967.681152	35.755157
2967.051758	23.833103
2966.422363	19.857861
2965.792725	11.912883
2965.163086	43.673843
2964.533203	19.848692
2963.903564	23.814762
2963.273438	15.874063
2962.643311	19.839523
2962.013184	23.803762
2961.383057	27.766779
2960.752686	35.694649
2960.122314	27.758226
2959.491699	43.613354
2958.861084	47.570873
2958.230225	35.672661
2957.599609	35.667164
2956.968506	43.586487
2956.337646	39.617973
2955.706299	35.650684
2955.075195	31.684612
2954.443848	7.919933
2953.812500	43.552917
2953.180908	55.422443
2952.549316	51.455769
2951.917725	43.532787
2951.285889	51.439907
2950.653809	31.650450
2950.021973	47.468357
2949.389893	47.461037
2948.757568	43.499245
2948.125244	67.215744
2947.492920	63.252121
2946.860352	43.479130
2946.227783	63.232620
2945.595215	51.368580
2944.962402	47.409840
2944.329590	55.302952
2943.696533	47.395218
2943.063477	75.030853
2942.430420	122.399887
2941.797119	78.955490
2941.163574	86.837639
2940.530273	94.717361
2939.896729	106.540588
2939.262939	130.196182
2938.629150	102.562988
2937.995361	110.435410
2937.361328	122.248909
2936.727295	141.944565
2936.093262	145.864960
2935.458984	145.842453
2934.824707	165.525345
2934.190186	149.737915
2933.555664	181.233704
2932.921143	153.630951
2932.286377	177.239120
2931.651367	196.901947
2931.016602	185.059265
2930.381592	185.030701
2929.746338	181.065918
2929.111084	165.295532
2928.475830	200.685013
2927.840332	196.719620
2927.204834	196.689255
2926.569336	208.458405
2925.933594	192.695938
2925.297607	192.666168
2924.661865	224.087265
2924.025879	216.191147
2923.389648	212.227615
2922.753418	231.842499
2922.117188	278.953796
2921.480713	231.770874
2920.844238	212.096497
2920.207764	247.407684
2919.571045	263.075470
2918.934082	239.479446
2918.297363	227.666595
2917.660156	227.631409
2917.023193	223.672150
2916.385986	258.948792
2915.748779	254.985901
2915.111328	235.335220
2914.473877	215.690613
2913.836182	250.946640
2913.198486	317.555237
2912.560791	254.788879
2911.922852	286.103271
2911.284912	266.465942
2910.646729	254.670715
2910.008545	301.640198
2909.370361	258.508759
2908.731934	301.546906
2908.093506	270.175568
2907.455078	270.133789
2906.816406	277.920776
2906.177490	313.101715
2905.538574	285.661133
2904.899658	293.442047
2904.260498	312.956451
2903.621338	387.223694
2902.982178	332.413330
2902.342773	312.811218
2901.703369	363.586761
2901.063721	336.167999
2900.424072	386.924194
2899.784424	375.141144
2899.144531	355.547516
2898.504639	410.183655
2897.864502	414.026062
2897.224365	413.961975
2896.583984	409.993195
2895.943848	406.025635
2895.303223	417.673248
2894.662842	429.317230
2894.021973	429.250763
2893.381348	397.970917
2892.740479	433.018921
2892.099609	393.947205
2891.458496	483.583038
2890.817383	440.616302
2890.176025	428.852112
2889.534668	424.887634
2888.893311	463.796295
2888.251709	487.105530
2887.610107	483.133820
2886.968262	471.372070
2886.326416	514.144409
2885.684570	506.275909
2885.042480	533.454224
2884.400391	541.158020
2883.758057	568.322510
2883.115723	630.506714
2882.473389	727.694397
2881.830811	789.834595
2881.188232	933.649841
2880.545410	1046.303711
2879.902588	1104.476563
2879.259766	1283.171631
2878.616699	1282.972778
2877.973633	1294.435425
2877.330322	1239.822510
2876.687012	1126.936646
2876.043457	971.346436
2875.399902	897.384949
2874.756348	831.214722
2874.112549	796.133606
2873.468750	671.754944
2872.824707	648.356506
2872.180664	636.610596
2871.536621	624.868347
2870.892334	582.085205
2870.248047	581.994934
2869.603760	508.196716
2868.958984	539.147949
2868.314453	535.186157
2867.669678	566.123596
2867.024902	577.666626
2866.379883	534.937073
2865.734863	558.108582
2865.089844	527.020752
2864.444580	546.311768
2863.799316	507.487457
2863.153809	515.155396
2862.508301	553.802917
2861.862549	553.716980
2861.216797	526.530151
2860.571045	565.157898
2859.925049	611.514282
2859.279053	580.461365
2858.632813	603.586121
2857.986572	591.886780
2857.340332	607.266663
2856.693848	672.917114
2856.047363	653.478943
2855.400635	699.771118
2854.753906	649.410400
2854.107178	738.203125
2853.460205	722.631104
2852.813232	772.747437
2852.166016	764.901123
2851.518799	791.820068
2850.871338	787.835144
2850.223877	864.939453
2849.576416	953.601990
2848.928711	961.174133
2848.281006	941.727051
2847.633301	933.862854
2846.985352	1049.467896
2846.337158	1103.313110
2845.688965	1060.713135
2845.040771	1156.961670
2844.392578	1137.502197
2843.743896	1064.073853
2843.095459	1133.293823
2842.446777	1133.117676
2841.798096	1025.042236
2841.149170	1051.853516
2840.500244	936.119629
2839.851074	951.381042
2839.202148	858.805603
2838.552734	754.707275
2837.903320	793.089417
2837.253906	642.841431
2836.604492	592.707642
2835.954834	596.463623
2835.304932	542.505066
2834.655029	465.481598
2834.005127	465.409180
2833.354980	411.496155
2832.704834	372.980530
2832.054688	330.632324
2831.404297	288.297272
2830.753906	272.878967
2830.103271	215.194977
2829.452637	249.741013
2828.801758	203.603287
2828.150879	176.684784
2827.500000	192.018784
2826.848877	134.392227
2826.197754	134.371307
2825.546387	149.704727
2824.895020	130.491501
2824.243408	115.121628
2823.591797	122.777283
2822.940186	118.921974
2822.288330	99.725479
2821.636475	80.534958
2820.984619	99.694427
2820.332520	76.676079
2819.680176	88.163757
2819.028076	84.317413
2818.375488	84.304283
2817.723145	95.785393
2817.070557	80.447197
2816.417725	61.283554
2815.764893	61.274010
2815.112061	91.896690
2814.458984	80.397079
2813.805908	65.073212
2813.152832	61.235828
2812.499512	45.919716
2811.845947	87.999069
2811.192383	57.381756
2810.538818	65.022522
2809.885010	61.188126
2809.231201	45.883942
2808.577393	45.876789
2807.923340	61.159519
2807.269287	49.684361
2806.614990	68.783005
2805.960693	34.386139
2805.306152	61.121384
2804.651611	61.111855
2803.997070	57.283428
2803.342285	68.729393
2802.687500	49.630157
2802.032471	64.890854
2801.377441	26.715595
2800.722412	38.159184
2800.067139	64.860489
2799.411621	38.147278
2798.756348	72.468521
2798.100586	45.762451
2797.445068	68.632973
2796.789307	53.372871
2796.133301	38.117531
2795.477539	76.223167
2794.821289	45.726761
2794.165283	34.289719
2793.509033	64.759361
2792.852539	38.087795
2792.196045	41.890038
2791.539551	76.151817
2790.882813	41.876961
2790.226074	64.708839
2789.569092	41.863888
2788.912109	41.857349
2788.255127	38.046196
2787.597900	45.648308
2786.940430	49.444611
2786.283203	26.619864
2785.625488	38.022438
2784.968018	64.628052
2784.310303	41.811619
2783.652588	45.605549
2782.994629	45.598427
2782.336426	41.792030
2781.678467	30.389456
2781.020264	26.586618
2780.361816	41.772446
2779.703369	30.375214
2779.044922	30.370468
2778.386230	34.161438
2777.727539	18.975611
2777.068604	49.328880
2776.409668	45.527233
2775.750732	49.313461
2775.091553	34.134754
2774.432373	26.545103
2773.772949	34.124084
2773.113525	64.446526
2772.453857	30.323036
2771.794189	34.108082
2771.134521	41.681137
2770.474609	41.674622
2769.814697	45.456116
2769.154541	60.598675
2768.494385	45.441898
2767.833984	34.076096
2767.173584	18.928204
2766.513184	41.635532
2765.852539	41.629021
2765.191895	56.757969
2764.531006	45.399273
2763.870117	26.478765
2763.209229	18.910444
2762.548096	45.377968
2761.886719	49.151775
2761.225586	45.363770
2760.563965	45.356670
2759.902588	37.791309
2759.240967	41.563938
2758.579102	52.891277
2757.917236	56.660355
2757.255371	18.883829
2756.593262	37.761745
2755.931152	30.204668
2755.269043	37.749928
2754.606689	41.518417
2753.944092	52.833351
2753.281494	37.732197
2752.618896	45.271549
2751.956055	30.176306
2751.293213	37.714478
2750.630371	49.021141
2749.967285	33.932400
2749.303955	26.387732
2748.640625	37.690857
2747.977295	60.295925
2747.313721	67.822289
2746.650146	52.742405
2745.986572	64.034317
2745.322754	22.596807
2744.658691	48.952076
2743.994873	41.414497
2743.330566	45.172375
2742.666504	75.275490
2742.002197	45.158218
2741.337646	48.913734
2740.673096	71.478104
2740.008545	67.705482
2739.343750	52.651566
2738.678955	60.163788
2738.013916	48.875416
2737.348877	60.144924
2736.683594	63.893967
2736.018311	71.399704
2735.353027	71.388512
2734.687500	56.350513
2734.021973	97.658913
2733.356201	90.132545
2732.690430	78.853615
2732.024658	97.612968
2731.358643	97.597664
2730.692383	97.582352
2730.026367	127.587677
2729.359863	97.551743
2728.693604	112.542046
2728.027100	90.019508
2727.360352	82.504936
2726.693604	108.739449
2726.026855	116.220482
2725.359863	123.699165
2724.692871	153.662720
2724.025635	153.638611
2723.358398	97.414070
2722.691162	93.652679
2722.023682	146.075241
2721.355957	153.542175
2720.688477	168.495453
2720.020508	142.262711
2719.352783	116.038200
2718.684814	149.703201
2718.016602	153.421692
2717.348389	138.431992
2716.680176	138.410248
2716.011719	127.167824
2715.343262	153.325348
2714.674561	123.388832
2714.005859	157.015671
2713.337158	145.777359
2712.668213	123.330696
2711.999023	145.731567
2711.329834	97.139114
2710.660645	115.801521
2709.991455	108.313438
2709.321777	123.233856
2708.652344	108.279404
2707.982666	85.863274
2707.312988	104.512779
2706.643066	123.156418
2705.972900	104.479927
2705.302979	100.732674
2704.632813	108.177345
2703.962402	82.052673
2703.291992	89.497932
2702.621582	108.126343
2701.950928	89.469803
2701.280273	100.637703
2700.609375	104.348618
2699.938477	78.249153
2699.267334	81.962418
2698.596191	78.224548
2697.925049	119.180565
2697.253662	59.580914
2696.582031	93.080536
2695.910645	81.897987
2695.239014	74.441002
2694.567139	66.986366
2693.895264	63.254948
2693.223145	66.965294
2692.551270	59.515339
2691.878906	52.067730
2691.206543	40.903923
2690.534180	33.461578
2689.861816	85.499466
2689.189209	44.601398
2688.516357	52.026775
2687.843506	59.449814
2687.170654	59.440456
2686.497559	33.429996
2685.824463	81.704903
2685.151123	59.412392
2684.477783	59.403042
2683.804199	33.408951
2683.130615	63.095860
2682.457031	63.085922
2681.783203	59.365639
2681.109375	55.646523
2680.435303	74.183678
2679.761230	37.085999
2679.086914	51.912220
2678.412598	63.026340
2677.738281	88.964348
2677.063721	63.006485
2676.389160	66.702240
2675.714355	25.935675
2675.039551	70.385742
2674.364502	62.966793
2673.689453	48.143490
2673.014404	74.055237
2672.339111	22.213070
2671.663574	59.225517
2670.988037	44.412140
2670.312500	59.206852
2669.636719	33.298607
2668.960938	48.090405
2668.285156	40.685467
2667.609131	55.471436
2666.932861	25.882589
2666.256592	55.453949
2665.580322	44.356163
2664.903809	55.436462
2664.227295	40.646996
2663.550781	29.556789
2662.874023	62.798275
2662.197021	40.627769
2661.520020	51.699917
2660.843018	47.999493
2660.165771	70.142036
2659.488525	40.602142
2658.811035	59.048347
2658.133545	55.349091
2657.455811	44.272289
2656.778076	33.198978
2656.100342	51.634705
2655.422363	66.377007
2654.744385	40.557323
2654.066162	77.415398
2653.387939	62.659718
2652.709473	70.020401
2652.031006	55.270538
2651.352539	73.682419
2650.673828	47.886013
2649.994873	40.512535
2649.316162	66.282776
2648.636963	55.226925
2647.958008	36.812138
2647.278809	62.570755
2646.599365	33.120464
2645.919922	58.871525
2645.240479	33.110004
2644.560791	33.104774
2643.880859	29.421820
2643.201172	44.125759
2642.520996	51.471920
2641.841064	58.815758
2641.160889	55.131065
2640.480469	58.797176
2639.800049	58.787888
2639.119629	33.062962
2638.438965	11.019246
2637.758301	36.725018
2637.077393	44.063057
2636.396484	36.713409
2635.715332	44.049129
2635.034180	25.691265
2634.353027	47.704807
2633.671631	22.014124
2632.989990	18.342203
2632.308350	22.007164
2631.626709	25.670967
2630.944824	44.000416
2630.262939	51.325699
2629.581055	36.655418
2628.898926	47.644508
2628.216553	36.643826
2627.534180	40.301834
2626.851807	29.305790
